Wavelength (Ang),Flux
6267.16,0.0423450
6268.59,0.0714709
6270.03,0.0714700
6271.47,0.0520511
6272.90,0.0569047
6274.34,0.0374859
6275.78,0.0132126
6277.21,0.0374840
6278.65,0.0358650
6280.09,0.0391004
6281.53,0.0390995
6282.96,0.0261533
6284.40,0.0496157
6285.84,0.0277697
6287.27,0.0423322
6288.71,0.0423314
6290.15,0.0209708
6291.58,0.0287371
6293.02,0.0384452
6294.46,0.0365025
6295.89,0.0481524
6297.33,0.0481516
6298.77,0.0423253
6300.20,0.0481499
6301.64,0.0345565
6303.08,0.0364974
6304.52,0.0364966
6305.95,0.0539719
6307.39,0.0559128
6308.83,0.0306687
6310.26,0.0462022
6311.70,0.0520268
6313.14,0.0306663
6314.57,0.0248401
6316.01,0.0423154
6317.45,0.0403728
6318.88,0.0190123
6320.32,0.0500802
6321.76,0.0209525
6323.19,0.0423115
6324.63,0.0403689
6326.07,0.0423099
6327.50,0.0384255
6328.94,0.0461919
6330.38,0.0500748
6331.81,0.0481322
6333.25,0.0558986
6334.68,0.0597814
6336.12,0.0364792
6337.56,0.0287113
6338.99,0.0423031
6340.43,0.0190008
6341.87,0.0403598
6343.30,0.0461844
6344.74,0.0248240
6346.18,0.0461830
6347.61,0.0461823
6349.05,0.0461816
6350.49,0.0325883
6351.92,0.0325876
6353.36,0.0442376
6354.79,0.0131683
6356.23,0.0248183
6357.67,0.0403519
6359.10,0.0325841
6360.54,0.0228744
6361.98,0.0286991
6363.41,0.0345238
6364.85,0.0364649
6366.29,0.0500568
6367.72,0.0325800
6369.16,0.0345211
6370.59,0.0306369
6372.03,0.0461706
6373.47,0.0325774
6374.90,0.0500528
6376.34,0.0325761
6377.78,0.0481097
6379.21,0.0306330
6380.65,0.0519920
6382.08,0.0345153
6383.52,0.0383982
6384.96,0.0325722
6386.39,0.0248044
6387.83,0.0228620
6389.26,0.0228614
6390.70,0.0422787
6392.14,0.0306273
6393.57,0.0286850
6395.01,0.0364515
6396.45,0.0364509
6397.88,0.0364503
6399.32,0.0403333
6400.75,0.0267402
6402.19,0.0578082
6403.63,0.0461569
6405.06,0.0519817
6406.50,0.0500393
6407.93,0.0461552
6409.37,0.0383874
6410.81,0.0398432
6412.24,0.0544061
6413.68,0.0616872
6415.11,0.0519777
6416.55,0.0446954
6417.98,0.0446949
6419.42,0.0592578
6420.86,0.0325576
6422.29,0.0665384
6423.73,0.0689651
6425.16,0.0398377
6426.60,0.0616823
6428.04,0.0544001
6429.47,0.0398361
6430.91,0.0446901
6432.34,0.0374078
6433.78,0.0786704
6435.21,0.0592520
6436.65,0.0543970
6438.09,0.0641054
6439.52,0.0422598
6440.96,0.0888623
6442.39,0.0713856
6443.83,0.0733269
6445.26,0.0946862
6446.70,0.0810931
6448.14,0.0869180
6449.57,0.0908011
6451.01,0.0849753
6452.44,0.100509
6453.88,0.127694
6455.31,0.0985664
6456.75,0.0966241
6458.19,0.102449
6459.62,0.119925
6461.06,0.110215
6462.49,0.0985641
6463.93,0.104389
6465.36,0.0577855
6466.80,0.114097
6468.23,0.0849697
6469.67,0.0927365
6471.10,0.0577838
6472.54,0.0674923
6473.98,0.0538993
6475.41,0.0636079
6476.85,0.0383641
6478.28,0.0616652
6479.72,0.0461305
6481.15,0.0383629
6482.59,0.0441879
6484.02,0.0558382
6485.46,0.0655467
6486.90,0.0461284
6488.33,0.0500116
6489.77,0.0849634
6491.20,0.0344765
6492.64,0.0538940
6494.07,0.0325339
6495.51,0.0480678
6496.94,0.0636018
6498.38,0.0480671
6499.81,0.0538921
6501.25,0.0364156
6502.68,0.0558331
6504.12,0.0461238
6505.55,0.0597159
6506.99,0.0635992
6508.42,0.0558316
6509.86,0.0558313
6511.29,0.0538891
6512.73,0.0480634
6514.17,0.0519466
6515.60,0.0577716
6517.04,0.0480623
6518.47,0.0519456
6519.91,0.0713632
6521.34,0.0480613
6522.78,0.0461192
6524.21,0.0733039
6525.65,0.0616529
6527.08,0.0597107
6528.52,0.0558268
6529.95,0.0810698
6531.39,0.0364083
6532.82,0.0519423
6534.26,0.0402912
6535.69,0.0422327
6537.13,0.0461160
6538.56,0.0422321
6540.00,0.0461153
6541.43,0.0441733
6542.87,0.0558237
6544.30,0.0538816
6545.74,0.0364052
6547.17,0.0383467
6548.61,0.0344628
6550.04,0.0111610
6551.48,0.0538802
6552.91,0.0305784
6554.35,0.0383453
6555.78,0.0461121
6557.22,0.0344611
6558.65,0.0364026
6560.09,0.0169845
6561.52,0.0344603
6562.96,0.0266929
6564.39,0.0402852
6565.82,0.0305759
6567.26,0.0577608
6568.69,0.0364008
6570.13,0.0189244
6571.56,0.0480510
6573.00,0.0266911
6574.43,0.0325162
6575.87,0.0208652
6577.30,0.0422247
6578.74,0.0461080
6580.17,0.0480496
6581.61,0.0616419
6583.04,0.0325148
6584.48,0.0344563
6585.91,0.0558158
6587.35,0.0461066
6588.78,0.0305721
6590.21,0.0325136
6591.65,0.0325134
6593.08,0.0499893
6594.52,0.0363966
6595.95,0.0402799
6597.39,0.0363962
6598.82,0.0228034
6600.26,0.0422211
6601.69,0.0383373
6603.13,0.0422207
6604.56,0.0383369
6605.99,0.0247442
6607.43,0.0305694
6608.86,0.0305692
6610.30,0.0422197
6611.73,0.0208598
6613.17,0.0266850
6614.60,0.0363938
6616.04,0.0519279
6617.47,0.0286263
6618.91,0.0519276
6620.34,0.0286259
6621.77,0.0499854
6623.21,0.0266838
6624.64,0.0325090
6626.08,0.0577521
6627.51,0.0266833
6628.95,0.0325085
6630.38,0.0305665
6631.81,0.0286246
6633.25,0.0461005
6634.68,0.0558093
6636.12,0.0208569
6637.55,0.0363911
6638.99,0.0286238
6640.42,0.0344490
6641.85,0.0441578
6643.29,0.0460995
6644.72,0.0441575
6646.16,0.0363902
6647.59,0.0480408
6649.03,0.0247392
6650.46,0.0286227
6651.89,0.0227972
6653.33,0.0286224
6654.76,0.0286223
6656.20,0.0363893
6657.63,0.0596907
6659.06,0.0441562
6660.50,0.0635740
6661.93,0.0305634
6663.37,0.0363887
6664.80,0.0422140
6666.24,0.0538646
6667.67,0.0383301
6669.10,0.0325047
6670.54,0.0305628
6671.97,0.0402716
6673.41,0.0519223
6674.84,0.0558057
6676.27,0.0305623
6677.71,0.0732817
6679.14,0.0499801
6680.58,0.0422128
6682.01,0.0596888
6683.44,0.0499798
6684.88,0.0422125
6686.31,0.0635721
6687.75,0.0771646
6689.18,0.0713391
6690.61,0.0635719
6692.05,0.0907569
6693.48,0.0907568
6694.92,0.0888149
6696.35,0.0810477
6697.78,0.0829894
6699.22,0.135418
6700.65,0.139301
6702.08,0.108232
6703.52,0.114058
6704.95,0.133476
6706.39,0.152893
6707.82,0.139301
6709.25,0.193671
6710.69,0.137359
6712.12,0.168427
6713.56,0.162602
6714.99,0.182020
6716.42,0.147068
6717.86,0.133475
6719.29,0.162602
6720.72,0.158718
6722.16,0.187845
6723.59,0.193670
6725.03,0.152893
6726.46,0.174252
6727.89,0.135416
6729.33,0.178136
6730.76,0.164543
6732.19,0.149009
6733.63,0.222797
6735.06,0.195612
6736.49,0.234448
6737.93,0.232506
6739.36,0.232506
6740.80,0.236389
6742.23,0.277167
6743.66,0.319886
6745.10,0.350955
6746.53,0.290759
6747.96,0.249982
6749.40,0.228622
6750.83,0.292701
6752.26,0.213088
6753.70,0.244156
6755.13,0.189786
6756.56,0.183961
6758.00,0.154834
6759.43,0.143183
6760.86,0.129590
6762.30,0.114056
6763.73,0.0868710
6765.17,0.0791038
6766.60,0.0946382
6768.03,0.0519187
6769.47,0.0519187
6770.90,0.0732784
6772.33,0.0635695
6773.77,0.0460933
6775.20,0.0674530
6776.63,0.0499769
6778.07,0.0460933
6779.50,0.0480351
6780.93,0.0519187
6782.37,0.0460933
6783.80,0.0383262
6785.23,0.0519187
6786.67,0.0286172
6788.10,0.0441516
6789.53,0.0383262
6790.97,0.0538605
6792.40,0.0538606
6793.83,0.0480352
6795.27,0.0363845
6796.70,0.0460934
6798.13,0.0558024
6799.56,0.0558024
6801.00,0.0305592
6802.43,0.0538607
6803.86,0.0558025
6805.30,0.0344428
6806.73,0.0422100
6808.16,0.0499772
6809.60,0.0286175
6811.03,0.0499772
6812.46,0.0402683
6813.90,0.0189086
6815.33,0.0247340
6816.76,0.0499773
6818.20,0.0266759
6819.63,0.0286177
6821.06,0.0441520
6822.50,0.0305595
6823.93,0.0441521
6825.36,0.0344432
6826.79,0.0422104
6828.23,0.0344432
6829.66,0.0460940
6831.09,0.0363851
6832.53,0.0344434
6833.96,0.0383270
6835.39,0.0300744
6836.83,0.0203655
6838.26,0.0761920
6839.69,0.0252200
6841.12,0.0349290
6842.56,0.0203657
6843.99,0.0519198
6845.42,0.00822954
6846.86,0.0325020
6848.29,0.0349293
6849.72,0.0203659
6851.15,0.0494928
6852.59,0.0551564
6854.02,0.0292659
6855.45,0.0292659
6856.89,0.0648655
6858.32,0.0260297
6859.75,0.0454477
6861.18,0.0357388
6862.62,0.0357388
6864.05,0.0252209
6865.48,0.0470661
6866.92,0.0349299
6868.35,0.0349300
6869.78,0.0883293
6871.21,0.0567752
6872.65,0.0325029
6874.08,0.0373574
6875.51,0.0422120
6876.94,0.0681026
6878.38,0.0939932
6879.81,0.0810480
6881.24,0.0883298
6882.68,0.0956115
6884.11,0.0567758
6885.54,0.102893
6886.97,0.0737666
6888.41,0.102894
6889.84,0.0761939
6891.27,0.0883302
6892.70,0.0810485
6894.14,0.0810486
6895.57,0.0640580
6897.00,0.0931849
6898.43,0.0907578
6899.87,0.0956123
6901.30,0.0786217
6902.73,0.0786218
6904.17,0.0771655
6905.60,0.0519223
6907.03,0.0363880
6908.46,0.0635732
6909.90,0.0538643
6911.33,0.0480390
6912.76,0.0422137
6914.19,0.0227958
6915.62,0.0422138
6917.06,0.0422139
6918.49,0.0325050
6919.92,0.0363887
6921.35,0.0208544
6922.79,0.0305634
6924.22,0.0247381
6925.65,0.0305636
6927.08,0.0227965
6928.52,0.0150294
6929.95,0.0305638
6931.38,0.0344474
6932.81,0.0189132
6934.25,0.0266804
6935.68,0.0150298
6937.11,0.0150298
6938.54,0.0169717
6939.98,0.0130882
6941.41,0.0266808
6942.84,0.0499824
6944.27,0.0247392
6945.71,0.0208557
6947.14,0.0383319
6948.57,0.00920507
6950.00,0.0266813
6951.43,0.00920522
6952.87,0.0286232
6954.30,0.0325069
6955.73,0.0208562
6957.16,0.0344488
6958.60,0.0305653
6960.03,0.0266818
6961.46,0.0305655
6962.89,0.0286238
6964.32,0.0266820
6965.76,0.0247403
6967.19,0.0247404
6968.62,0.0208569
6970.05,0.0305659
6971.49,0.0208571
6972.92,0.0247407
6974.35,0.0247408
6975.78,0.0111483
6977.21,0.0208574
6978.65,0.0189156
6980.08,0.0363918
6981.51,0.0461009
6982.94,0.0227995
6984.37,0.0111488
6985.81,0.0227996
6987.24,0.0266833
6988.67,0.0247416
6990.10,0.0208581
6991.53,0.0169746
6992.97,0.0266836
6994.40,0.0344508
6995.83,0.0228002
6997.26,0.0130913
6998.69,0.0111496
7000.13,0.0130914
7001.56,0.0344512
7002.99,0.00726621
7004.42,0.0266842
7005.85,0.0208589
7007.29,0.0189172
7008.72,0.0344516
7010.15,0.0169755
7011.58,0.0286264
7013.01,0.00581039
7014.45,0.0276556
7015.88,0.0325102
7017.31,0.0252285
7018.74,0.0357466
7020.17,0.0195651
7021.60,0.0228015
7023.04,0.0130926
7024.47,0.0325106
7025.90,0.0292744
7027.33,0.0422197
7028.76,0.0130929
7030.20,0.0357472
7031.63,0.0130930
7033.06,0.0454563
7034.49,0.0195658
7035.92,0.0260385
7037.35,0.0130933
7038.79,0.00662075
7040.22,0.0292751
7041.65,0.0422204
7043.08,0.0276570
7044.51,0.0252299
7045.95,0.0228027
7047.38,0.0305699
7048.81,0.0111521
7050.24,0.0325118
7051.67,0.0169776
7053.10,0.00726868
7054.54,0.0266867
7055.97,0.0247449
7057.40,0.0286286
7058.83,0.00726894
7060.26,0.0305705
7061.69,0.0286288
7063.13,0.0266870
7064.56,0.0266871
7065.99,0.0247454
7067.42,0.0189200
7068.85,0.0208619
7070.28,0.0286291
7071.71,0.0169784
7073.15,0.0150367
7074.58,0.0228039
7076.01,0.0247458
7077.44,0.0286294
7078.87,0.0208623
7080.30,0.0247459
7081.74,0.0247460
7083.17,0.0150371
7084.60,0.0266879
7086.03,0.0189208
7087.46,0.0189208
7088.89,0.0422224
7090.32,0.0228045
7091.76,0.0305717
7093.19,0.0189210
7094.62,0.0111539
7096.05,0.0189211
7097.48,0.0247465
7098.91,0.0266884
7100.34,0.0169795
7101.78,0.0208631
7103.21,0.0266885
7104.64,0.0266885
7106.07,0.0130960
7107.50,0.0286304
7108.93,0.0130961
7110.36,0.0111544
7111.80,0.0344559
7113.23,0.0325141
7114.66,0.0208634
7116.09,0.0325142
7117.52,0.0150381
7118.95,0.0247471
7120.38,0.0325143
7121.81,0.0266890
7123.25,0.0169801
7124.68,0.0325144
7126.11,0.0208637
7127.54,0.0111548
7128.97,0.0169802
7130.40,0.0286309
7131.83,0.0208638
7133.26,0.0228056
7134.70,0.0150385
7136.13,0.0189221
7137.56,0.0111549
7138.99,0.0208639
7140.42,0.0189221
7141.85,0.0150386
7143.28,0.00144606
7144.71,0.0266894
7146.15,0.0189222
7147.58,0.0266894
7149.01,0.0111551
7150.44,0.0130969
7151.87,0.0130969
7153.30,0.0189223
7154.73,0.0286312
7156.16,0.0189223
7157.59,0.0266895
7159.03,0.0111551
7160.46,0.0208641
7161.89,0.0228059
7163.32,0.0325149
7164.75,0.0169805
7166.18,0.0325149
7167.61,0.0169805
7169.04,0.0208641
7170.47,0.0247477
7171.90,0.0130969
7173.34,0.0150387
7174.77,0.00921335
7176.20,0.0169805
7177.63,0.0169805
7179.06,0.0305730
7180.49,0.0286312
7181.92,0.0305730
7183.35,0.00727149
7184.78,0.0111551
7186.21,0.0228058
7187.65,0.0228058
7189.08,0.0228058
7190.51,0.0130968
7191.94,0.0189221
7193.37,0.0247475
7194.80,0.0228057
7196.23,0.0130967
7197.66,0.0247474
7199.09,0.0130966
7200.52,0.0208638
7201.95,0.0325145
7203.39,0.0130965
7204.82,0.0286308
7206.25,0.0266890
7207.68,0.0130964
7209.11,0.00144566
7210.54,0.0169800
7211.97,0.0247471
7213.40,0.0189217
7214.83,0.0325142
7216.26,0.00921262
7217.69,0.0305723
7219.12,0.0228051
7220.56,0.0286304
7221.99,0.0228050
7223.42,0.0169795
7224.85,0.0266884
7226.28,0.0266884
7227.71,0.00727042
7229.14,0.0286301
7230.57,0.00921209
7232.00,0.0169792
7233.43,0.0266881
7234.86,0.0228045
7236.29,0.0286298
7237.72,0.00532820
7239.15,0.0480475
7240.58,0.0111534
7242.02,0.0286295
7243.45,0.0130951
7244.88,0.0247458
7246.31,0.0247457
7247.74,0.0228038
7249.17,0.0189201
7250.60,0.0305708
7252.03,0.0150364
7253.46,0.0228035
7254.89,0.0228034
7256.32,0.0363958
7257.75,0.0189196
7259.18,0.0228031
7260.61,0.0169777
7262.04,0.0169776
7263.47,0.0189193
7264.91,0.0169774
7266.34,0.0305698
7267.77,0.00532643
7269.20,0.0247442
7270.63,0.0150352
7272.06,0.0228022
7273.49,0.0189185
7274.92,0.0169766
7276.35,0.0130929
7277.78,0.0150346
7279.21,0.0189181
7280.64,0.00338365
7282.07,0.0189179
7283.50,0.0189177
7284.93,0.00920866
7286.36,0.0286264
7287.79,0.0189174
7289.22,0.0169754
7290.65,0.0305679
7292.08,0.0208588
7293.51,0.0150333
7294.94,0.0189167
7296.38,0.0286255
7297.81,0.0189164
7299.24,0.0325088
7300.67,0.0305669
7302.10,0.0266832
7303.53,0.0189159
7304.96,0.0286247
7306.39,0.0208573
7307.82,0.0208572
7309.25,0.0325078
7310.68,0.0266823
7312.11,0.0169731
7313.54,0.0247401
7314.97,0.0363907
7316.40,0.0150309
7317.83,0.0150307
7319.26,0.0286231
7320.69,0.0208557
7322.12,0.0286227
7323.55,0.0344479
7324.98,0.0189134
7326.41,0.00726248
7327.84,0.0189130
7329.27,0.0266800
7330.70,0.0247381
7332.13,0.0325050
7333.56,0.0150287
7334.99,0.0130867
7336.42,0.0189119
7337.85,0.0111446
7339.28,0.0111444
7340.71,0.0150277
7342.14,0.0150275
7343.57,0.00337658
7345.00,0.0227943
7346.43,0.0208523
7347.86,0.0344446
7349.29,0.0130847
7350.72,0.0227934
7352.15,0.00337531
7353.58,0.00337509
7355.01,0.00920024
7356.44,0.00920001
7357.87,0.0169670
7359.30,0.0169667
7360.73,0.0208501
7362.17,0.0169663
7363.59,0.0208496
7365.02,0.0208494
7366.46,0.0169655
7367.89,0.0130817
7369.31,0.0286158
7370.75,0.00919764
7372.18,0.0189063
7373.60,0.0227897
7375.04,0.00531330
7376.46,0.0189056
7377.90,0.0208471
7379.33,0.00725431
7380.75,0.0383227
7382.19,0.0150209
7383.61,0.00919530
7385.04,0.0189040
7386.47,0.0208455
7387.90,0.0247288
7389.33,0.0247285
7390.76,0.0266700
7392.19,0.0227862
7393.62,0.0305531
7395.05,0.0247274
7396.48,0.0169599
7397.91,0.0227850
7399.34,0.0247265
7400.77,0.0189008
7402.20,0.0227841
7403.63,0.0111331
7405.06,0.0188999
7406.49,0.00724887
7407.92,0.0111321
7409.35,0.0111318
7410.78,0.0188987
7412.21,0.0130730
7413.64,0.00142191
7415.07,0.0305485
7416.50,0.0169556
7417.93,0.0188971
7419.36,0.0208385
7420.79,0.0324889
7422.22,0.0150125
7423.65,0.0150121
7425.08,0.0208372
7426.51,0.0305458
7427.94,0.0266618
7429.37,0.00335999
7430.80,0.00335964
7432.23,0.0130682
7433.66,0.0227768
7435.09,0.0154948
7436.52,0.0154944
7437.95,0.0106395
7439.38,0.00821194
7440.81,0.00821157
7442.24,0.0179201
7443.67,0.0154925
7445.10,0.0203466
7446.53,0.00821005
7447.96,0.0349093
7449.39,0.0106365
7450.82,0.0130634
7452.25,0.0154902
7453.67,0.0203443
7455.10,0.0276256
7456.53,0.0251980
7457.96,0.0179158
7459.39,0.0227699
7460.82,0.00917696
7462.25,0.0208273
7463.68,0.00917612
7465.11,0.0188847
7466.54,-0.000533676
7467.97,0.0111166
7469.40,0.0169416
7470.83,0.00917399
7472.26,0.0247079
7473.69,0.0111149
7475.12,0.0227652
7476.55,0.0208230
7477.98,0.0149972
7479.41,0.0247057
7480.84,0.0169381
7482.27,0.0266466
7483.70,0.0324715
7485.12,0.0285874
7486.55,0.0188780
7487.98,0.0227611
7489.41,0.0266442
7490.84,0.0169348
7492.27,0.0149925
7493.70,0.0130503
7495.13,0.0344095
7496.56,0.0208165
7497.99,0.0285831
7499.42,0.0305244
7500.85,0.0169314
7502.28,0.0227563
7503.71,0.0111050
7505.14,0.0227553
7506.57,0.0188712
7508.00,0.0188707
7509.43,-0.00831493
7510.85,0.0149860
7512.28,0.0169273
7513.71,0.0227522
7515.14,0.0130427
7516.57,0.00139141
7518.00,0.0246924
7519.43,0.0402262
7520.86,0.0285749
7522.29,0.0227490
7523.72,0.0130395
7525.15,0.0169225
7526.58,0.0130384
7528.01,0.0285721
7529.44,0.0266298
7530.87,0.0305128
7532.29,0.0110943
7533.72,0.0169191
7535.15,0.0266275
7536.58,0.0285687
7538.01,0.0169174
7539.44,0.00575151
7540.87,-0.00638527
7542.30,0.0178865
7543.73,0.0227404
7545.16,0.0251671
7546.59,0.00574855
7548.02,0.0178841
7549.45,0.0251653
7550.88,-0.00153499
7552.30,0.0154551
7553.73,0.0106000
7555.16,0.00817212
7556.59,0.00817150
7558.02,0.0154526
7559.45,0.00817024
7560.88,0.0178786
7562.31,0.0162598
7563.74,0.0194954
7565.17,0.0227311
7566.60,0.00978520
7568.03,0.0203026
7569.45,0.0154475
7570.88,0.0105923
7572.31,0.0178734
7573.74,0.0154455
7575.17,0.0154448
7576.60,0.0227258
7578.03,0.00816174
7579.46,0.00816106
7580.89,0.0251510
7582.32,0.000877973
7583.75,0.0202952
7585.17,0.0130128
7586.60,0.0105848
7588.03,0.0154386
7589.46,0.0227196
7590.89,0.0246607
7592.32,0.0188346
7593.75,0.0207757
7595.18,0.00912425
7596.61,0.0207743
7598.04,0.0110646
7599.46,0.0130057
7600.89,0.00717955
7602.32,0.0304803
7603.75,0.00523628
7605.18,0.0265952
7606.61,0.00717658
7608.04,0.00523403
7609.47,0.0168840
7610.90,0.0188251
7612.33,0.00523175
7613.75,-0.00253618
7615.18,0.0149392
7616.61,0.0188220
7618.04,0.0207630
7619.47,0.0149368
7620.90,0.00716888
7622.33,0.0304696
7623.76,0.0168763
7625.19,0.0149337
7626.62,0.0188165
7628.04,0.0129903
7629.47,0.0110477
7630.90,0.0168722
7632.33,0.0149296
7633.76,0.0168706
7635.19,0.00716081
7636.62,0.0226943
7638.05,0.0110427
7639.48,0.0246344
7640.90,-0.000609688
7642.33,0.00715663
7643.76,0.0188065
7645.19,0.0168639
7646.62,0.0304556
7648.05,0.00521143
7649.48,0.00715235
7650.91,0.0149186
7652.33,0.00715061
7653.76,0.00132436
7655.19,0.0110324
7656.62,0.00326439
7658.05,0.0110307
7659.48,0.0110298
7660.91,0.00520351
7662.34,0.00131902
7663.76,0.00520170
7665.19,0.0187933
7666.62,0.0110253
7668.05,0.00325717
7669.48,0.00519804
7670.91,0.0226732
7672.34,0.0149051
7673.77,0.0284968
7675.19,0.0168451
7676.62,0.00907696
7678.05,0.00519244
7679.48,0.0168422
7680.91,0.0187831
7682.34,0.0168403
7683.77,0.0148976
7685.20,0.0148966
7686.62,-0.000638697
7688.05,0.0246036
7689.48,0.0129519
7690.91,-0.000641634
7692.34,0.00129917
7693.77,0.00712355
7695.20,0.00906435
7696.62,0.0187723
7698.05,0.00129518
7699.48,0.00323596
7700.91,0.00711853
7702.34,0.0168265
7703.77,0.0207090
7705.20,0.00711547
7706.62,0.00517265
7708.05,0.00711340
7709.48,0.00711237
7710.91,0.00905311
7712.34,0.0304118
7713.77,0.00322564
7715.20,0.0109918
7716.62,-0.00260185
7718.05,0.0129314
7719.48,0.0148721
7720.91,0.00322032
7722.34,0.00710282
7723.77,0.0265197
7725.20,0.00515886
7726.62,0.00127419
7728.05,0.00709847
7729.48,0.0168063
7730.91,0.00903805
7732.34,0.00903695
7733.77,0.0109776
7735.20,0.0129183
7736.62,0.00126643
7738.05,0.0187414
7739.48,0.00320596
7740.91,0.00514662
7742.34,0.00708727
7743.77,0.0148533
7745.20,-0.00456578
7746.62,0.00514203
7748.05,0.00902445
7749.48,0.00319791
7750.91,0.00513854
7752.34,0.00707916
7753.77,0.0206705
7755.19,0.00901859
7756.62,0.00319203
7758.05,0.0148416
7759.48,0.00124785
7760.91,0.0148392
7762.34,0.00707082
7763.76,-0.00263934
7765.19,0.0148356
7766.62,0.00512539
7768.05,0.00706596
7769.48,0.00706473
7770.91,0.0187142
7772.33,0.00900405
7773.76,0.00511922
7775.19,0.00705977
7776.62,0.00900031
7778.05,0.0167662
7779.48,0.0128814
7780.91,0.0148219
7782.33,0.00511167
7783.76,0.0128776
7785.19,0.0245270
7786.62,-0.00265933
7788.05,-0.00460241
7789.48,0.0186978
7790.90,0.0284054
7792.33,0.00898623
7793.76,0.00704313
7795.19,0.00121644
7796.62,0.00704050
7798.04,-0.000727993
7799.47,0.0148050
7800.90,0.00897830
7802.33,0.00897696
7803.76,0.00703383
7805.19,0.0147996
7806.61,0.00897292
7808.04,0.00120440
7809.47,0.0128538
7810.90,-0.00850729
7812.33,0.0128510
7813.76,0.00314071
7815.18,0.0167319
7816.61,0.00702152
7818.04,0.0186709
7819.47,0.00505467
7820.90,0.00700253
7822.32,0.0264265
7823.75,0.00313103
7825.18,0.00507883
7826.61,0.00896841
7828.04,0.00703260
7829.47,0.00898035
7830.89,0.00704450
7832.32,0.0128758
7833.75,-0.000710834
7835.18,-0.00264673
7836.61,0.00124272
7838.03,0.00707395
7839.46,0.0109634
7840.89,0.0129110
7842.32,0.0168004
7843.75,0.0109808
7845.17,0.00710295
7846.60,0.00516691
7848.03,0.00128906
7849.46,0.00517836
7850.89,0.0110094
7852.32,0.0129569
7853.74,0.00325360
7855.17,0.00908462
7856.60,0.00909025
7858.03,0.00715407
7859.46,0.00910145
7860.88,0.0188160
7862.31,0.0188215
7863.74,0.00135096
7865.17,0.00912365
7866.60,0.00330378
7868.02,0.0110764
7869.45,0.0130237
7870.88,0.00720378
7872.31,0.0110928
7873.74,-0.00249432
7875.16,-0.000547129
7876.59,0.0130508
7878.02,-0.000536374
7879.45,0.00529435
7880.88,0.00141610
7882.30,0.00918859
7883.73,0.0130775
7885.16,0.00531559
7886.59,0.00726265
7888.02,-0.00438285
7889.44,0.00727313
7890.87,0.00533656
7892.30,0.00339997
7893.73,-0.00242022
7895.16,0.00535211
7896.58,0.0228334
7898.01,0.00730418
7899.44,0.00536751
7900.87,0.00343081
7902.30,0.00149410
7903.72,0.00926634
7905.15,0.0209221
7906.58,0.00927642
7908.01,0.0170486
7909.44,-0.00430611
7910.86,0.0112332
7912.29,0.00735459
7913.72,0.0131849
7915.15,0.00542268
7916.57,0.0151366
7918.00,0.0112579
7919.43,0.0170881
7920.86,0.00544226
7922.29,0.00738890
7923.71,0.00351015
7925.14,0.0132239
7926.57,0.00546156
7928.00,0.00546635
7929.43,0.00935470
7930.85,0.0113013
7932.28,0.00353882
7933.71,0.00742712
7935.14,0.0132572
7936.56,0.0152037
7937.99,0.00355761
7939.42,0.00550406
7940.85,0.00162511
7942.28,0.0152223
7943.70,0.00745972
7945.13,0.0113479
7946.56,-0.00224007
7947.99,0.0171824
7949.42,0.0113616
7950.84,0.0113661
7952.27,0.00360346
7953.70,0.00166616
7955.13,0.0191468
7956.55,0.00750048
7957.98,-0.000262234
7959.41,0.0152765
7960.84,0.00363020
7962.26,-0.00801615
7963.69,0.00169720
7965.12,0.0211195
7966.55,-0.000235869
7967.98,0.00753563
7969.40,-0.00605258
7970.83,-0.00216469
7972.26,0.00754856
7973.69,0.00561105
7975.11,0.00561531
7976.54,-0.00408941
7977.97,0.00562378
7979.40,0.0255314
7980.83,-0.00116407
7982.25,0.00854906
7983.68,0.00612599
7985.11,0.00855739
7986.54,0.0109888
7987.96,0.00613841
7989.39,0.00128803
7990.82,0.00371937
7992.25,0.00372344
7993.67,0.0134365
7995.10,-0.00355017
7996.53,0.00616282
7997.96,-0.00839660
7999.38,0.00617083
8000.81,0.0183110
8002.24,-0.00353017
8003.67,0.0183189
8005.10,0.00618668
8006.52,0.0158996
8007.95,-0.00205810
8009.38,0.00377117
8010.81,0.00377505
8012.23,-0.00204646
8013.66,-0.00204261
8015.09,0.00767018
8016.52,0.00184862
8017.94,0.00767780
8019.37,0.0115652
8020.80,0.00962716
8022.23,0.0135145
8023.65,0.00186750
8025.08,0.00575481
8026.51,-6.68494e-05
8027.94,0.00576223
8029.36,0.00770770
8030.79,0.00576958
8032.22,0.00383145
8033.65,0.0174276
8035.07,-4.48683e-05
8036.50,-0.00586663
8037.93,0.0174385
8039.36,0.00384951
8040.78,-0.00973946
8042.21,0.00579842
8043.64,0.00386017
8045.07,0.0135727
8046.49,0.00969258
8047.92,0.00775428
8049.35,0.0116413
8050.78,-0.00777310
8052.20,0.00388110
8053.63,9.59262e-07
8055.06,0.00582976
8056.49,0.00971675
8057.91,0.00777835
8059.34,0.00583994
8060.77,-0.00774923
8062.20,0.00584666
8063.62,-0.00580075
8065.05,-0.00579742
8066.48,0.0111966
8067.91,0.0111999
8069.33,-0.00336030
8070.76,0.00149745
8072.19,0.00635518
8073.62,-0.00335054
8075.04,0.00150717
8076.47,0.00151038
8077.90,0.00151358
8079.33,0.00151676
8080.75,0.00151993
8082.18,0.00880480
8083.61,0.0136624
8085.04,0.00395659
8086.46,0.00395971
8087.89,0.00881728
8089.32,0.00882037
8090.75,0.0185324
8092.17,0.00397202
8093.60,0.00591686
8095.03,0.0136871
8096.46,9.75346e-05
8097.88,-0.00184125
8099.31,0.00398711
8100.74,0.00593188
8102.16,-0.00765770
8103.59,-0.00765475
8105.02,0.00788252
8106.45,0.0156526
8107.87,0.00983014
8109.30,0.00206587
8110.73,-0.000843941
8112.16,-0.00812279
8113.58,0.00158902
8115.01,0.00159186
8116.44,-0.00568703
8117.87,0.00887922
8119.29,-0.00568142
8120.72,0.00403033
8122.15,0.00160586
8123.57,0.00646310
8125.00,0.00403861
8126.43,-0.00566761
8127.86,0.0210347
8129.28,0.00161953
8130.71,0.00404947
8132.14,0.00647939
8133.57,-0.00322690
8134.99,0.00891195
8136.42,0.00163287
8137.85,0.00891722
8139.27,0.00212356
8140.70,0.00600975
8142.13,0.00989592
8143.56,-0.00175225
8144.98,-0.00174969
8146.41,0.00602003
8147.84,0.000197194
8149.27,0.00990867
8150.69,0.00214402
8152.12,-0.00756244
8153.55,-0.00561816
8154.97,0.00797685
8156.40,0.00797931
8157.83,0.00409818
8159.26,0.0118678
8160.68,-0.00366413
8162.11,0.0176980
8163.54,0.00993321
8164.97,-0.00365694
8166.39,-0.00365457
8167.82,-0.00365221
8169.25,-0.00364987
8170.67,0.00606142
8172.10,0.00994733
8173.53,0.00606605
8174.96,0.00801014
8176.38,-0.00363833
8177.81,0.000247527
8179.24,-0.00557559
8180.66,0.00413561
8182.09,-0.00557111
8183.52,-0.00362710
8184.95,0.00414228
8186.37,0.00220268
8187.80,0.00414666
8189.23,0.00414883
8190.65,0.00415099
8192.08,0.00415313
8193.51,0.00415527
8194.94,0.0138663
8196.36,0.00998487
8197.79,0.00416160
8199.22,0.0138726
8200.64,0.00222397
8202.07,0.000284238
8203.50,0.00222808
8204.93,0.00611370
8206.35,-0.00165144
8207.78,0.00611774
8209.21,0.00223615
8210.63,0.00417994
8212.06,0.0100073
8213.49,0.00806746
8214.92,0.00418583
8216.34,-0.00163760
8217.77,0.00807329
8219.20,-0.00163375
8220.62,0.0100189
8222.05,0.00419542
8223.48,0.00419730
8224.91,-0.00162620
8226.33,0.000317448
8227.76,-0.00162250
8229.19,0.0119719
8230.61,0.00614833
8232.04,0.00615014
8233.47,0.0100355
8234.89,0.00809552
8236.32,0.0158645
8237.75,0.0100409
8239.18,-0.00160814
8240.60,-0.00160640
8242.03,-0.00160467
8243.46,0.0178150
8244.88,0.00616593
8246.31,0.000342249
8247.74,-0.00159786
8249.17,0.00422919
8250.59,0.00617264
8252.02,-0.00159287
8253.45,-0.00159123
8254.87,-0.00158960
8256.30,0.00229559
8257.73,-0.00546996
8259.15,0.000357003
8260.58,0.000358586
8262.01,0.00618553
8263.44,0.0158961
8264.86,0.0120140
8266.29,0.00813197
8267.72,0.00230812
8269.14,0.00230964
8270.57,0.00231115
8272.00,0.0120216
8273.42,-0.0112784
8274.85,0.000373803
8276.28,0.000375264
8277.71,0.00426030
8279.13,0.0139707
8280.56,0.00620496
8281.99,-0.00350258
8283.41,0.00232419
8284.84,-0.00349978
8286.27,-0.00349840
8287.69,0.000386558
8289.12,0.00621330
8290.55,0.000389274
8291.97,-0.00349297
8293.40,-0.00543343
8294.83,0.0101022
8296.26,0.00621995
8297.68,0.00427946
8299.11,0.00233895
8300.54,-0.00154335
8301.96,-0.00348388
8303.39,0.00428454
8304.82,0.0178783
8306.24,0.00817061
8307.67,0.00428825
8309.10,0.000405878
8310.53,0.00429066
8311.95,-0.00541710
8313.38,0.00235125
8314.81,0.000410629
8316.23,0.00914985
8317.66,0.00186929
8319.09,0.00672490
8320.51,-0.00541016
8321.94,0.00915439
8323.37,-0.000553452
8324.79,-0.000552352
8326.22,-0.000551263
8327.65,-0.000550183
8329.07,0.00187812
8330.50,-0.00297529
8331.93,0.00430747
8333.36,0.00916299
8334.78,0.0164457
8336.21,0.00188332
8337.64,-0.000542914
8339.06,0.00431256
8340.49,0.00916803
8341.92,0.00188729
8343.34,0.00916998
8344.77,0.000432875
8346.20,0.00625920
8347.62,0.0101437
8349.05,0.0120864
8350.48,0.00626198
8351.90,0.0140301
8353.33,-0.00732875
8354.76,-0.00150248
8356.18,0.00626556
8357.61,0.0101500
8359.04,0.00626729
8360.46,0.00626814
8361.89,0.000443607
8363.32,0.000444437
8364.75,0.00821242
8366.17,0.000446071
8367.60,0.00821404
8369.03,0.00433125
8370.45,-0.00731872
8371.88,0.00627460
8373.31,-0.00343360
8374.73,0.00627611
8376.16,0.0101604
8377.59,-0.00537315
8379.01,-0.00148885
8380.44,0.0101626
8381.87,0.000454368
8383.29,-0.00925389
8384.72,0.00239754
8386.15,0.00822360
8387.57,0.000457102
8389.00,-0.00148403
8390.43,-0.00925054
8391.85,-0.00148274
8393.28,0.00240148
8394.71,-0.00148148
8396.13,0.00434451
8397.56,0.00240332
8398.99,-0.00730504
8400.42,-0.00342087
8401.84,0.000463290
8403.27,0.0140564
8404.70,0.000464419
8406.12,-0.00147682
8407.55,0.00240730
8408.98,0.00240783
8410.40,0.00240836
8411.83,-0.00147471
8413.26,0.000467588
8414.68,-0.00535729
8416.11,-0.00729859
8417.54,0.00435264
8418.96,0.0121203
8420.39,-0.00147181
8421.82,-0.00147135
8423.24,-0.00341270
8424.67,0.00241311
8426.10,0.000471743
8427.52,0.00435574
8428.95,-0.00146922
8430.38,0.000472969
8431.80,0.00241515
8433.23,0.00629912
8434.66,-0.00535125
8436.08,0.00824165
8437.51,-0.00340874
8438.94,-0.00146660
8440.36,0.000475531
8441.79,-0.00146593
8443.22,0.00241798
8444.64,0.000476500
8446.07,0.00824397
8447.50,-0.00146468
8448.92,0.00436098
8450.35,0.00241947
8451.78,-0.00146384
8453.20,-0.00146358
8454.63,0.00436206
8456.06,0.000478719
8457.48,-0.00146283
8458.91,0.0121299
8460.34,0.00824658
8461.76,0.00824680
8463.19,-0.00534554
8464.62,-0.00340355
8466.04,0.0198981
8467.47,0.000480411
8468.90,0.0101895
8470.32,0.00824792
8471.75,0.00436449
8473.18,-0.00340252
8474.60,-0.00146059
8476.03,0.00436492
8477.46,0.00242326
8478.88,-0.00728558
8480.31,-0.00146010
8481.74,0.000481796
8483.16,0.00630727
8484.59,0.000481979
8486.02,0.000482058
8487.44,0.0121329
8488.87,-0.00340139
8490.30,-0.00728492
8491.72,-0.00340128
8493.15,-0.00145945
8494.58,-0.00340121
8496.00,-0.00340118
8497.43,0.000482415
8498.86,0.00436601
8500.28,0.00242422
8501.71,0.00824959
8503.14,-0.00340117
8504.56,0.00436597
8505.99,-0.00922660
8507.42,-0.00534305
8508.84,-0.00340130
8510.27,0.00242402
8511.70,0.00242397
8513.12,0.00436570
8514.55,0.00436562
8515.97,0.00630733
8517.40,-0.00534350
8518.83,-0.00146001
8520.25,-0.00146011
8521.68,0.00630694
8523.11,-0.00146034
8524.53,-0.00340225
8525.96,0.000481198
8527.39,0.00242285
8528.81,-0.0131116
8530.24,-0.0111700
8531.67,-0.00340298
8533.09,0.000480438
8534.52,0.00824743
8535.95,-0.00340350
8537.37,0.00436348
8538.80,0.00630508
8540.23,-0.00340408
8541.65,0.0101882
8543.08,0.00242087
8544.51,0.0121296
8545.93,0.0121294
8547.36,0.000478389
8548.79,0.000478146
8550.21,0.000477895
8551.64,-0.00340594
8553.07,-0.00534800
8554.49,0.00241890
8555.92,0.00824399
8557.34,0.00630192
8558.77,-0.00340733
8560.20,-0.00340763
8561.62,0.00193200
8563.05,-0.00535003
8564.48,-0.000495872
8565.90,-0.000496196
8567.33,-0.00535101
8568.76,0.00435762
8570.18,0.00193003
8571.61,-0.000497556
8573.04,-0.000497913
8574.46,-0.00292551
8575.89,-0.00292588
8577.32,0.00435546
8578.74,0.00435507
8580.17,-0.00535427
8581.60,-0.00778190
8583.02,-0.00778231
8584.45,0.0164897
8585.88,0.00435307
8587.30,-0.00535631
8588.73,-0.00292950
8590.16,0.000468208
8591.58,0.00435135
8593.01,-0.00535805
8594.43,0.000466871
8595.86,0.00823358
8597.29,0.00434954
8598.71,0.00240727
8600.14,0.00629038
8601.57,0.000464524
8602.99,0.00434762
8604.42,0.000463543
8605.85,-0.00342054
8607.27,-0.00342105
8608.70,-0.00536335
8610.13,-0.00730566
8611.55,0.0101699
8612.98,-0.00148134
8614.41,-0.00730725
8615.83,-0.00536600
8617.26,0.00822600
8618.68,0.00434186
8620.11,0.0101667
8621.54,-0.0111936
8622.96,0.00434017
8624.39,-0.00536936
8625.82,0.00239722
8627.24,-0.00342874
8628.67,-0.0111965
8630.10,-0.00342994
8631.52,0.00433663
8632.95,-0.00925652
8634.38,0.00433540
8635.80,0.00239299
8637.23,0.000450571
8638.66,-0.00149185
8640.08,0.00433288
8641.51,-0.00537672
8642.93,0.00433159
8644.36,0.00238915
8645.79,0.00627207
8647.21,0.00238782
8648.64,-0.00926359
8650.07,0.00627006
8651.49,0.000444008
8652.92,-0.0131492
8654.35,-0.00732453
8655.77,0.00432552
8657.20,0.0101502
8658.63,0.00238232
8660.05,-0.00150198
8661.48,-0.00732807
8662.91,0.00626375
8664.33,0.00237944
8665.76,-0.00150487
8667.18,-0.00927278
8668.61,-0.00538994
8670.04,0.00626006
8671.46,-0.00539144
8672.89,-0.00150861
8674.32,-0.00539296
8675.74,0.00431523
8677.17,0.00431446
8678.60,0.000430101
8680.02,-0.00345426
8681.45,-0.00151326
8682.88,-0.00151405
8684.30,0.000426943
8685.73,0.00430973
8687.15,-0.00151645
8688.58,0.0120753
8690.01,0.00430729
8691.43,-0.00151890
8692.86,0.0178982
8694.29,0.000421234
8695.71,-0.00734676
8697.14,-0.00152223
8698.57,0.000418718
8699.99,0.0101268
8701.42,-0.00152477
8702.84,-0.00346742
8704.27,0.000415301
8705.70,-0.00541094
8707.12,-0.00735360
8708.55,-0.00347089
8709.98,-0.00929715
8711.40,0.00429451
8712.83,-0.00347355
8714.26,0.000409144
8715.68,0.00623362
8717.11,0.0120581
8718.54,0.000406441
8719.96,-0.00541984
8721.39,0.00428820
8722.81,0.00622907
8724.24,-0.00153901
8725.67,-0.00736532
8727.09,-0.00154087
8728.52,-0.00154181
8729.95,0.00428263
8731.37,-0.00542727
8732.80,-0.00154464
8734.23,-0.00154559
8735.65,0.000395249
8737.08,0.000394289
8738.50,0.000393327
8739.93,-0.00349122
8741.36,-0.00543398
8742.78,0.00233220
8744.21,-0.00737773
8745.64,-0.00155334
8747.06,0.00232926
8748.49,0.00815364
8749.92,0.000385480
8751.34,-0.00738268
8752.77,0.00426706
8754.19,-0.00155932
8755.62,0.00232326
8757.05,-0.00156134
8758.47,0.00232123
8759.90,-0.00544696
8761.33,0.00231918
8762.75,-0.00350722
8764.18,-0.00739183
8765.61,-0.00350928
8767.03,-0.00739390
8768.46,-0.00156957
8769.88,0.000371173
8771.31,-0.00351346
8772.74,-0.00157272
8774.16,-0.00739915
8775.59,-0.00157483
8777.02,0.00424948
8778.44,-0.00157696
8779.87,0.000363758
8781.30,0.00424627
8782.72,-0.00158018
8784.15,-0.00740664
8785.58,0.00424303
8787.00,0.000358362
8788.43,-0.00158452
8789.85,0.00229797
8791.28,-0.00352850
8792.71,0.00617936
8794.13,0.00812005
8795.56,0.00811894
8796.99,-0.00547470
8798.41,0.00423314
8799.84,0.00617382
8801.26,0.000347330
8802.69,-0.00353737
8804.12,0.00811225
8805.54,-0.00548141
8806.97,0.00228462
8808.40,-0.00742547
8809.82,-0.00936839
8811.25,0.0139320
8812.68,0.00422187
8814.10,0.00810431
8815.53,-0.00548938
8816.96,-0.00743232
8818.38,0.000333695
8819.81,0.000332541
8821.23,-0.00355220
8822.66,0.00421381
8824.09,-0.00549631
8825.51,0.000327894
8826.94,-0.00549865
8828.37,-0.00161623
8829.79,0.0100333
8831.22,-0.00356038
8832.64,-0.00550334
8834.07,0.00226264
8835.50,0.0119704
8836.92,0.00614385
8838.35,0.00420087
8839.78,0.00225789
8841.20,0.000314906
8842.63,0.00808088
8844.05,-0.00551286
8845.48,0.00613669
8846.91,0.00613548
8848.33,0.000308905
8849.76,0.00613307
8851.19,0.00613186
8852.61,0.00418886
8854.04,0.00612944
8855.47,-0.00163895
8856.89,0.000301627
8858.32,-0.00746676
8859.75,0.000299182
8861.17,0.000297958
8862.60,-0.00358685
8864.02,0.00806267
8865.45,0.00417785
8866.88,0.0158274
8868.30,-0.00553357
8869.73,0.00417415
8871.16,0.00417291
8872.58,0.00999704
8874.01,0.0119376
8875.43,-0.00165619
8876.86,-0.00165744
8878.29,0.00610847
8879.71,0.000281849
8881.14,0.000280596
8882.57,0.00222113
8883.99,0.000278086
8885.42,0.0119276
8886.84,0.00804273
8888.27,0.00415789
8889.70,0.000273045
8891.12,-0.00555359
8892.55,0.00609589
8893.98,0.00609462
8895.40,0.00220977
8896.83,0.00609208
8898.26,-0.00555994
8899.68,-0.00167763
8901.11,0.00414647
8902.54,0.0119124
8903.96,-0.00168146
8905.39,-0.00362454
8906.81,-0.00362582
8908.24,-0.00556889
8909.67,-0.00362838
8911.09,0.00413750
8912.52,0.00413621
8913.95,0.00219313
8915.37,0.000250048
8916.80,-0.00363483
8918.22,0.00413105
8919.65,0.000246171
8921.08,0.00218667
8922.50,0.00412717
8923.93,-0.00364130
8925.36,0.000240984
8926.78,-0.00170211
8928.21,0.00218018
8929.63,0.00412067
8931.06,0.000235782
8932.49,0.00605985
8933.91,0.00217496
8935.34,-0.00170992
8936.77,0.000230561
8938.19,-0.00559612
8939.62,0.000227945
8941.05,-0.00559874
8942.47,-0.00365826
8943.90,0.00410760
8945.33,-0.00171909
8946.75,-0.00560398
8948.18,0.000220076
8949.60,0.00216055
8951.03,-0.00366614
8952.46,0.00798330
8953.88,-0.00172698
8955.31,0.00215529
8956.74,-0.00561319
8958.16,-0.00367272
8959.59,0.000209540
8961.01,-0.00173357
8962.44,0.00214869
8963.87,0.00603095
8965.29,0.000204257
8966.72,-0.00173886
8968.15,-0.00950734
8969.57,0.00990925
8971.00,0.00214076
8972.42,-0.00756952
8973.85,0.000196317
8975.28,-0.00368859
8976.70,-0.00174812
8978.13,0.00407592
8979.56,0.00213281
8980.98,0.00795685
8982.41,-0.00175343
8983.84,-0.00175475
8985.26,0.000185710
8986.69,-0.00564099
8988.11,-0.00564232
8989.54,-0.00564365
8990.97,-0.00370318
8992.39,-0.00370451
8993.82,-0.00370584
8995.25,-0.00564896
8996.67,0.000175088
8998.10,-0.00370982
8999.53,0.00599781
9000.95,-0.00565427
9002.38,0.00405336
9003.80,-0.00371513
9005.23,0.00793428
9006.66,0.000165791
9008.08,-0.00371912
9009.51,0.00210493
9010.94,0.00210360
9012.36,0.00404406
9013.79,-0.00566622
9015.21,-0.00760934
9016.64,-0.00372708
9018.07,0.00209696
9019.49,0.00209564
9020.92,0.00209431
9022.35,-0.00567418
9023.77,-0.0105300
9025.20,-0.000822350
9026.63,0.00403080
9028.05,0.00402948
9029.48,0.00888263
9030.91,-0.0105366
9032.33,0.00402551
9033.76,0.00159695
9035.18,-0.00325885
9036.61,0.00402154
9038.04,-0.00568873
9039.46,-0.000835575
9040.89,0.00159034
9042.32,0.00644350
9043.74,0.00158771
9045.17,0.00158639
9046.59,-0.00569664
9048.02,0.00401100
9049.45,0.00158244
9050.87,-0.000846112
9052.30,0.00400705
9053.73,-0.00376143
9055.15,0.00206263
9056.58,-0.00182226
9058.01,-0.00182357
9059.43,0.00400050
9060.86,0.00399919
9062.29,-0.00182749
9063.71,-0.00377059
9065.14,0.00593706
9066.56,-0.00183141
9067.99,-0.00183272
9069.42,-0.00183402
9070.84,-0.00183532
9072.27,0.00398875
9073.70,-0.00377971
9075.12,-0.00572280
9076.55,-0.00184052
9077.97,0.00786714
9079.40,0.00398227
9080.83,0.00398097
9082.25,0.00980505
9083.68,0.00397839
9085.11,9.35150e-05
9086.53,-0.00573315
9087.96,-0.00961802
9089.39,8.96519e-05
9090.81,-0.00573701
9092.24,8.70852e-05
9093.67,-0.00379778
9095.09,0.00590990
9096.52,0.00396683
9097.94,-0.00185983
9099.37,-0.00186110
9100.80,0.00396300
9102.22,-0.00186365
9103.65,-0.00769030
9105.08,-0.00380798
9106.50,0.00784150
9107.93,0.00201486
9109.35,-0.00575357
9110.78,0.00201233
9112.21,-0.00963968
9113.63,0.00200981
9115.06,0.0136593
9116.49,6.54990e-05
9117.91,-0.00964471
9119.34,-0.00187880
9120.77,0.00200353
9122.19,0.00782766
9123.62,-0.00382434
9125.04,0.00199979
9126.47,-0.00188504
9127.90,0.00588089
9129.32,5.42738e-05
9130.75,-0.00577234
9132.18,5.18002e-05
9133.60,0.00199236
9135.03,-0.00189246
9136.46,4.81047e-05
9137.88,0.00198867
9139.31,0.00392923
9140.74,-0.00189736
9142.16,4.32059e-05
9143.59,0.00586736
9145.01,-0.00578460
9146.44,-0.00190224
9147.87,-0.00384524
9149.29,0.00197892
9150.72,-0.00773124
9152.15,3.47188e-05
9153.57,0.00197531
9155.00,0.00391589
9156.43,0.00391470
9157.85,-0.000940979
9159.28,0.0111940
9160.71,0.00148388
9162.13,0.0257551
9163.56,-0.000945739
9164.98,-0.00822864
9166.41,0.00633361
9167.84,0.00633243
9169.26,-0.00580494
9170.69,0.00147560
9172.12,0.00147443
9173.54,-0.0130902
9174.97,0.00147210
9176.40,-0.0106653
9177.82,0.00713333
9179.25,0.000659535
9180.67,-0.00581426
9182.10,0.00712986
9183.53,0.00874688
9184.95,0.00146401
9186.38,-0.00339161
9187.81,-0.00581999
9189.23,0.00388783
9190.66,0.00388669
9192.09,0.00145832
9193.51,0.00631167
9194.94,-0.00258934
9196.37,-0.00906310
9197.79,-0.00259158
9199.22,0.00387994
9200.65,-0.00583013
9202.07,-0.000976767
9203.50,-0.000977877
9204.92,-0.0106879
9206.35,0.00872887
9207.78,0.00387329
9209.20,0.00872668
9210.63,-0.00583785
9212.06,-0.0155479
9213.48,0.00386893
9214.91,0.0329947
9216.34,0.00386676
