Wavelength (Ang),Flux
4566.25,-0.00570141
4567.35,-0.00570187
4568.45,0.0313356
4569.55,0.0189891
4570.64,0.0159022
4571.74,0.00972873
4572.84,0.0220742
4573.94,0.0128143
4575.03,0.00664087
4576.13,0.0231017
4577.23,0.0272166
4578.33,0.0313315
4579.42,0.0128121
4580.52,0.0220711
4581.62,0.0158977
4582.72,0.0174405
4583.81,0.0152795
4584.91,0.0189828
4586.01,0.0177478
4587.10,0.0165128
4588.20,0.0202162
4589.30,0.00910436
4590.40,0.0128077
4591.49,0.0128073
4592.59,0.0177453
4593.69,0.0189794
4594.79,0.0115714
4595.88,0.0115710
4596.98,0.0177436
4598.08,0.0103356
4599.17,0.0202120
4600.27,0.0165078
4601.37,0.0165074
4602.46,0.00909938
4603.56,0.0128028
4604.66,0.0152716
4605.76,0.0239133
4606.85,0.0202092
4607.95,0.0177396
4609.05,0.0177392
4610.14,0.0263810
4611.24,0.0226768
4612.34,0.0202072
4613.44,0.0152684
4614.53,0.0202064
4615.63,0.0189715
4616.73,0.00909430
4617.82,0.00909393
4618.92,0.0214395
4620.02,0.0214391
4621.11,0.0165004
4622.21,0.0189692
4623.31,0.0152651
4624.40,0.0115609
4625.50,0.0140297
4626.60,0.0103256
4627.69,0.0214366
4628.79,0.0263746
4629.89,0.0115591
4630.98,0.0115587
4632.08,0.0127930
4633.18,0.0164964
4634.28,0.0140269
4635.37,0.0152611
4636.47,0.0140262
4637.57,0.00908745
4638.66,0.0177293
4639.76,0.0140252
4640.86,0.0189632
4641.95,0.0152591
4643.05,0.0189625
4644.15,0.0127892
4645.24,0.0177273
4646.34,0.0288383
4647.44,0.0226650
4648.53,0.0251339
4649.63,0.0164914
4650.72,0.0127872
4651.82,0.0288367
4652.92,0.0177250
4654.01,0.0103171
4655.11,0.0201936
4656.21,0.0214278
4657.30,0.0177237
4658.40,0.0276002
4659.50,0.00908094
4660.59,0.0152536
4661.69,0.0103149
4662.79,0.00908002
4663.88,0.00784512
4664.98,0.0140178
4666.08,0.00784452
4667.17,0.0127826
4668.27,0.0127823
4669.36,0.0127820
4670.46,0.0177201
4671.56,0.00907765
4672.65,0.0275963
4673.75,0.0152501
4674.85,0.00660759
4675.94,0.0127803
4677.04,0.0174097
4678.13,0.0282122
4679.23,0.0235822
4680.33,0.0189522
4681.42,0.0220384
4682.52,0.0220381
4683.62,0.0235811
4684.71,0.0143213
4685.81,0.0235805
4686.90,0.0312965
4688.00,0.0143205
4689.10,0.0174067
4690.19,0.0158632
4691.29,0.0312954
4692.38,0.0127762
4693.48,0.0189490
4694.58,0.00968922
4695.67,0.0127755
4696.77,0.0112320
4697.86,0.0103058
4698.96,0.0201823
4700.06,0.0214166
4701.15,0.00536663
4702.25,0.0189469
4703.34,0.0115391
4704.44,0.0177119
4705.54,0.0288230
4706.63,0.0152422
4707.73,0.0238841
4708.82,0.0238839
4709.92,0.0189453
4711.02,0.0189450
4712.11,0.0127718
4713.21,0.0177100
4714.30,0.0189443
4715.40,0.0214133
4716.49,0.00906712
4717.59,0.0103015
4718.69,0.0103013
4719.78,0.0115356
4720.88,0.0103008
4721.97,0.0152390
4723.07,0.0214118
4724.17,0.0189423
4725.26,0.0251151
4726.36,0.0152381
4727.45,0.0189417
4728.55,0.0177069
4729.64,0.0214105
4730.74,0.0152373
4731.83,0.0152371
4732.93,0.0214099
4734.03,0.00906370
4735.12,0.0152365
4736.22,0.00782870
4737.31,0.0214091
4738.41,0.0127667
4739.50,0.0214087
4740.60,0.0201739
4741.69,0.0115315
4742.79,0.0226427
4743.89,0.0164695
4744.98,0.0115309
4746.08,0.0189383
4747.17,0.0189382
4748.27,0.0127650
4749.36,0.0177032
4750.46,0.0238760
4751.55,0.0189374
4752.65,0.0115297
4753.75,0.0189371
4754.84,0.0214061
4755.94,0.0201713
4757.03,0.0189365
4758.13,0.0201710
4759.22,0.0275784
4760.32,0.0226398
4761.41,0.0238742
4762.51,0.0214049
4763.60,0.0115279
4764.70,0.0238737
4765.79,0.0214044
4766.89,0.0102929
4767.98,0.0139965
4769.08,0.0214039
4770.17,0.00782319
4771.27,0.0127614
4772.37,0.00905747
4773.46,0.0189341
4774.56,0.0127610
4775.65,0.00535323
4776.75,0.0176990
4777.84,0.0152297
4778.94,0.0201679
4780.03,0.0152294
4781.13,0.0201676
4782.22,0.0238713
4783.32,0.0115252
4784.41,0.0226364
4785.51,0.0164633
4786.60,0.0176977
4787.70,0.00658624
4788.79,0.0164629
4789.89,0.0164627
4790.98,0.0139934
4792.08,0.00658570
4793.17,0.0127586
4794.27,0.0214006
4795.36,0.0152275
4796.46,0.0288079
4797.55,0.0127580
4798.65,0.0115233
4799.74,0.0238692
4800.84,0.0288074
4801.93,0.0152267
4803.03,0.0115228
4804.12,0.0176957
4805.22,0.0164610
4806.31,0.0127571
4807.41,0.0164607
4808.50,0.0201644
4809.60,0.00905293
4810.69,0.0139912
4811.78,0.0164603
4812.88,0.0201640
4813.97,0.0238676
4815.07,0.0139908
4816.16,0.0152252
4817.26,0.00658296
4818.35,0.0164596
4819.45,0.0189287
4820.54,0.0238670
4821.64,0.0201631
4822.73,0.0201630
4823.83,0.0115207
4824.92,0.0238666
4826.02,0.0164589
4827.11,0.0164588
4828.21,0.0115203
4829.30,0.0189278
4830.39,0.0164585
4831.49,0.0176930
4832.58,0.0251005
4833.68,0.0213967
4834.77,0.00905060
4835.87,0.0213965
4836.96,0.0251002
4838.06,0.0238655
4839.15,0.0238654
4840.25,0.0250999
4841.34,0.0115193
4842.43,0.0139884
4843.53,0.0250997
4844.62,0.0152228
4845.72,0.00781517
4846.81,0.0139881
4847.91,0.0152226
4849.00,0.0139879
4850.10,0.0127532
4851.19,0.0275683
4852.28,0.0238645
4853.38,0.0189260
4854.47,0.0189259
4855.57,0.0115183
4856.66,0.0139874
4857.76,0.0127527
4858.85,0.0176911
4859.94,0.0189256
4861.04,0.0115180
4862.13,0.0127525
4863.23,0.0226292
4864.32,0.0189253
4865.42,0.0139869
4866.51,0.0115176
4867.60,0.0164560
4868.70,0.0176905
4869.79,0.0201596
4870.89,0.0164558
4871.98,0.0102827
4873.08,0.0189249
4874.17,0.0201594
4875.26,0.0226285
4876.36,0.0127517
4877.45,0.0201593
4878.55,0.0263322
4879.64,0.0201591
4880.73,0.0275667
4881.83,0.0201591
4882.92,0.0275666
4884.02,0.0213936
4885.11,0.0238627
4886.21,0.0300356
4887.30,0.0288010
4888.39,0.0374431
4889.49,0.0312701
4890.58,0.0399122
4891.68,0.0399122
4892.77,0.0411468
4893.86,0.0312699
4894.96,0.0411467
4896.05,0.0102817
4897.15,0.0238622
4898.24,0.0436158
4899.33,0.0226276
4900.43,0.0300351
4901.52,0.0362081
4902.61,0.0288005
4903.71,0.0127507
4904.80,0.0189236
4905.90,0.0115160
4906.99,0.0250965
4908.08,0.0337387
4909.18,0.0238619
4910.27,0.0201581
4911.37,0.0238618
4912.46,0.0362078
4913.55,0.0201580
4914.65,0.0139850
4915.74,0.0226271
4916.83,0.0102812
4917.93,0.0152195
4919.02,0.0201579
4920.12,0.0164541
4921.21,0.0238616
4922.30,0.0189232
4923.40,0.0213924
4924.49,0.0152194
4925.58,0.0213924
4926.68,0.0263307
4927.77,0.0226269
4928.87,0.0164539
4929.96,0.0201577
4931.05,0.0287999
4932.15,0.0139847
4933.24,0.0139847
4934.33,0.0226268
4935.43,0.0226268
4936.52,0.0238614
4937.61,0.0176884
4938.71,0.0152192
4939.80,0.0127500
4940.90,0.0238614
4941.99,0.0263306
4943.08,0.00904621
4944.18,0.0139846
4945.27,0.0176884
4946.36,0.0226267
4947.46,0.0189230
4948.55,0.0176884
4949.64,0.0115154
4950.74,0.0164538
4951.83,0.0300343
4952.92,0.0213921
4954.02,0.0152192
4955.11,0.0238613
4956.20,0.0213921
4957.30,0.0238613
4958.39,0.0127500
4959.48,0.0201575
4960.58,0.0238613
4961.67,0.0127500
4962.76,0.0201575
4963.86,0.0164538
4964.95,0.0250959
4966.04,0.0152192
4967.14,0.0226268
4968.23,0.0250960
4969.32,0.0164538
4970.42,0.0176884
4971.51,0.0176884
4972.60,0.0238614
4973.70,0.0176884
4974.79,0.0263306
4975.88,0.0189230
4976.98,0.0189230
4978.07,0.0139847
4979.16,0.0176885
4980.26,0.0201577
4981.35,0.0226269
4982.44,0.0374420
4983.54,0.0287999
4984.63,0.0250961
4985.72,0.0275653
4986.81,0.0349729
4987.91,0.0238616
4989.00,0.0213924
4990.09,0.0263308
4991.19,0.0312692
4992.28,0.0423806
4993.37,0.0275654
4994.47,0.0275654
4995.56,0.0312692
4996.65,0.0201579
4997.75,0.0288001
4998.84,0.0263309
4999.93,0.0158369
5001.02,0.0266396
5002.12,0.0281829
5003.21,0.0158369
5004.30,0.0250964
5005.40,0.0158370
5006.49,0.0189235
5007.58,0.0158370
5008.67,0.0328127
5009.77,0.0173803
5010.86,0.0158371
5011.95,0.0389858
5013.05,0.0353849
5014.14,0.0353849
5015.23,0.0292120
5016.33,0.0230390
5017.42,0.0374427
5018.51,0.0312697
5019.60,0.00657781
5020.70,0.0292121
5021.79,0.0204671
5022.88,0.0250968
5023.97,0.0297266
5025.07,0.0189239
5026.16,0.0189239
5027.25,0.0328132
5028.35,0.0358997
5029.44,0.0420727
5030.53,0.0250970
5031.62,0.0292124
5032.72,0.0312701
5033.81,0.0353854
5034.90,0.0451593
5035.99,0.0621351
5037.09,0.0451594
5038.18,0.0590486
5039.27,0.0513325
5040.37,0.0636785
5041.46,0.0497893
5042.55,0.0667650
5043.64,0.0667650
5044.74,0.0513326
5045.83,0.0528759
5046.92,0.0343570
5048.01,0.0328138
5049.11,0.0204678
5050.20,0.0235544
5051.29,0.0328139
5052.38,0.0399128
5053.48,0.0312707
5054.57,0.0226285
5055.66,0.0238632
5056.75,0.0300362
5057.85,0.0300362
5058.94,0.0201595
5060.03,0.0238633
5061.12,0.0152212
5062.22,0.0226288
5063.31,0.0300364
5064.40,0.0226289
5065.49,0.0164559
5066.59,0.0213943
5067.68,0.0201598
5068.77,0.0176906
5069.86,0.0213944
5070.96,0.0213945
5072.05,0.0275675
5073.14,0.0201600
5074.23,0.0288022
5075.33,0.0201600
5076.42,0.0275677
5077.51,0.0139871
5078.60,0.0201601
5079.69,0.0152218
5080.79,0.0164564
5081.88,0.0164565
5082.97,0.0226295
5084.06,0.0263333
5085.16,0.0102836
5086.25,0.0213950
5087.34,0.0139875
5088.43,0.0275681
5089.53,0.0213951
5090.62,0.0189260
5091.71,0.0288028
5092.80,0.0176915
5093.89,0.0176915
5094.99,0.0238645
5096.08,0.0238646
5097.17,0.0213954
5098.26,0.0176916
5099.35,0.0102841
5100.45,0.0164571
5101.54,0.0275685
5102.63,0.0201610
5103.72,0.0102843
5104.82,0.0325070
5105.91,0.0201611
5107.00,0.0139882
5108.09,0.0201612
5109.18,0.0176920
5110.28,0.0152229
5111.37,0.00904994
5112.46,0.0139884
5113.55,0.0275690
5114.64,0.0152230
5115.74,0.00534630
5116.83,0.0213961
5117.92,0.0213961
5119.01,0.0115194
5120.10,0.00905025
5121.20,0.0102849
5122.29,0.0139887
5123.38,0.0176925
5124.47,0.00781580
5125.56,0.0164580
5126.66,0.0226310
5127.75,0.0139889
5128.84,0.0189273
5129.93,0.0139890
5131.02,0.0164582
5132.12,0.0176928
5133.21,0.0176929
5134.30,0.0152237
5135.39,0.0173843
5136.48,0.0112114
5137.58,0.00658166
5138.67,0.0127547
5139.76,0.0209854
5140.85,0.0189277
5141.94,0.0189278
5143.03,0.0209855
5144.13,0.0127549
5145.22,0.00863957
5146.31,0.00658195
5147.40,0.0148126
5148.49,0.0189280
5149.59,0.0209857
5150.68,0.0209857
5151.77,0.0271587
5152.86,0.0209858
5153.95,0.0209858
5155.04,0.0189282
5156.14,0.0189282
5157.23,0.0204715
5158.32,0.0189283
5159.41,0.0220148
5160.50,0.0189284
5161.59,0.0213976
5162.69,0.0127554
5163.78,0.0127555
5164.87,0.0115209
5165.96,0.0164593
5167.05,0.0226323
5168.14,0.0152248
5169.24,0.0201632
5170.33,0.0164595
5171.42,0.0201633
5172.51,0.0213979
5173.60,0.0164595
5174.69,0.0164596
5175.79,0.0102866
5176.88,0.0139904
5177.97,0.0213981
5179.06,0.0176943
5180.15,0.0251019
5181.24,0.0139906
5182.33,0.0127560
5183.43,0.0115214
5184.52,0.0115215
5185.61,0.00534850
5186.70,0.0226329
5187.79,0.0263367
5188.88,0.0139908
5189.97,0.0201638
5191.07,0.0201638
5192.16,0.0176946
5193.25,0.0164600
5194.34,0.0201639
5195.43,0.0176947
5196.52,0.00658335
5197.61,0.0127564
5198.71,0.0164602
5199.80,0.0127564
5200.89,0.0176948
5201.98,0.0139910
5203.07,0.00905268
5204.16,0.0152257
5205.25,0.0201641
5206.35,0.0139911
5207.44,0.0102874
5208.53,0.0139912
5209.62,0.0102874
5210.71,0.0139912
5211.80,0.00411445
5212.89,0.0164604
5213.98,0.0201642
5215.08,0.0152259
5216.17,0.0152259
5217.26,0.0139913
5218.35,0.0164605
5219.44,0.0238681
5220.53,0.0139914
5221.62,0.0189298
5222.71,0.0152260
5223.81,0.0213990
5224.90,0.0275720
5225.99,0.0115222
5227.08,0.0300412
5228.17,0.0263374
5229.26,0.0251028
5230.35,0.0288066
5231.44,0.0275720
5232.54,0.0275721
5233.63,0.0263375
5234.72,0.0251029
5235.81,0.0238683
5236.90,0.0263375
5237.99,0.0164607
5239.08,0.0213991
5240.17,0.0127570
5241.26,0.0164607
5242.36,0.0164608
5243.45,0.0226337
5244.54,0.0300413
5245.63,0.0139916
5246.72,0.0139916
5247.81,0.0238683
5248.90,0.0238684
5249.99,0.0164608
5251.08,0.0127570
5252.17,0.00781860
5253.27,0.0164608
5254.36,0.0164608
5255.45,0.0189300
5256.54,0.0176954
5257.63,0.0164608
5258.72,0.0115224
5259.81,0.0102878
5260.90,0.0127570
5261.99,0.0127570
5263.08,0.0115224
5264.18,0.0115224
5265.27,0.0176953
5266.36,0.0115223
5267.45,0.0127569
5268.54,0.00905313
5269.63,0.0189299
5270.72,0.0139915
5271.81,0.0115223
5272.90,0.0152261
5273.99,0.0251028
5275.08,0.0152260
5276.18,0.0102876
5277.27,0.0213990
5278.36,0.0201644
5279.45,0.0164606
5280.54,0.0139914
5281.63,0.0115222
5282.72,0.0176951
5283.81,0.0164605
5284.90,0.0115221
5285.99,0.0176951
5287.08,0.0189297
5288.17,0.0152258
5289.27,0.0127566
5290.36,0.0176950
5291.45,0.0115220
5292.54,0.0176950
5293.63,0.00287977
5294.72,0.0226333
5295.81,0.00905270
5296.90,0.0152257
5297.99,0.0115218
5299.08,0.0176948
5300.17,0.0251023
5301.26,0.0213985
5302.35,0.0288061
5303.44,0.0176947
5304.54,0.0102871
5305.63,0.0189292
5306.72,0.0139908
5307.81,0.0251021
5308.90,0.0152253
5309.99,0.0115215
5311.08,0.0176944
5312.17,0.0189290
5313.26,0.0164598
5314.35,0.0189289
5315.44,0.0152251
5316.53,0.0139905
5317.62,0.0127558
5318.71,0.0139904
5319.80,0.0152249
5320.89,0.0176941
5321.98,0.0176940
5323.08,0.0115210
5324.17,0.0226323
5325.26,0.0127555
5326.35,0.0115209
5327.44,0.0189284
5328.53,0.0127554
5329.62,0.0201629
5330.71,0.0127553
5331.80,0.0226320
5332.89,0.0115206
5333.98,0.0312740
5335.07,0.0201626
5336.16,0.0139896
5337.25,0.0337431
5338.34,0.0127549
5339.43,0.0139894
5340.52,0.0263353
5341.61,0.0102855
5342.70,0.0251006
5343.79,0.0139892
5344.88,0.0176929
5345.98,0.0115198
5347.07,0.0189274
5348.16,0.00905052
5349.25,0.00658126
5350.34,0.0139888
5351.43,0.0152233
5352.52,0.0115194
5353.61,0.0226307
5354.70,0.0127539
5355.79,0.0226306
5356.88,0.0189267
5357.97,0.0201613
5359.06,0.0300380
5360.15,0.0238649
5361.24,0.00781506
5362.33,0.0238647
5363.42,0.0189263
5364.51,0.00904942
5365.60,0.0201607
5366.69,0.0115184
5367.78,0.0176913
5368.87,0.0139875
5369.96,0.0139874
5371.05,0.0250987
5372.14,0.0164564
5373.23,0.0263331
5374.32,0.0201600
5375.41,0.00657937
5376.50,0.00904847
5377.59,0.0201597
5378.68,0.0201596
5379.77,0.0189250
5380.86,0.0238632
5381.95,0.0176902
5383.04,0.0152209
5384.13,0.0288013
5385.22,0.0201591
5386.31,0.0115168
5387.40,0.0102821
5388.50,0.0189242
5389.59,0.0238624
5390.68,0.0238623
5391.77,0.0139855
5392.86,0.0164545
5393.95,0.0226274
5395.04,0.0238619
5396.13,0.0127504
5397.22,0.0102811
5398.31,0.0226270
5399.40,0.0213923
5400.49,0.0213921
5401.58,0.0176882
5402.67,0.0115151
5403.76,0.0238610
5404.85,0.0213917
5405.94,0.0176878
5407.03,0.0176876
5408.12,0.0226259
5409.21,0.0115144
5410.30,0.0127489
5411.39,0.0189217
5412.48,0.0152178
5413.57,0.0201561
5414.66,0.00657538
5415.75,0.0102790
5416.84,0.0152173
5417.93,0.0164517
5419.02,0.0201554
5420.11,0.0263282
5421.20,0.0139821
5422.29,0.0152166
5423.38,0.0115127
5424.47,0.0152163
5425.56,0.0164508
5426.65,0.0201544
5427.74,0.0226235
5428.83,0.0152157
5429.92,0.0176848
5431.01,0.00780786
5432.10,0.0189191
5433.19,0.0213881
5434.28,0.0127458
5435.37,0.0127456
5436.46,0.0127455
5437.54,0.0152145
5438.63,0.0164490
5439.72,0.0127450
5440.81,0.0127448
5441.90,0.0139793
5442.99,0.0152137
5444.08,0.0201519
5445.17,0.0152134
5446.26,0.00657104
5447.35,0.0127439
5448.44,0.0189167
5449.53,0.0189165
5450.62,0.0226201
5451.71,0.00903938
5452.80,0.0189160
5453.89,0.0158293
5454.98,0.00656966
5456.07,0.0142857
5457.16,0.0158288
5458.25,0.00656911
5459.34,0.0111987
5460.43,0.00965524
5461.52,0.0158280
5462.61,0.0189143
5463.70,0.0111979
5464.79,0.0297167
5465.88,0.0266300
5466.97,0.0173703
5468.06,0.00811066
5469.15,0.0142834
5470.24,0.0173697
5471.33,0.0111966
5472.42,0.0189126
5473.51,0.0281719
5474.60,0.0158257
5475.69,0.0102698
5476.78,0.0176772
5477.87,0.0176770
5478.96,0.0176768
5480.04,0.0139728
5481.13,0.0127380
5482.22,0.0164415
5483.31,0.0102683
5484.40,0.0152065
5485.49,0.0139717
5486.58,0.00409470
5487.67,0.0139712
5488.76,0.0139710
5489.85,0.0164400
5490.94,0.0250819
5492.03,0.0139704
5493.12,0.0152047
5494.21,0.0213775
5495.30,0.0164389
5496.39,0.0189078
5497.48,0.00779621
5498.57,0.0127344
5499.66,0.0114995
5500.75,0.0102647
5501.84,0.0201412
5502.93,0.0189064
5504.02,0.0114986
5505.10,0.0164367
5506.19,0.0152019
5507.28,0.00532485
5508.37,0.0139668
5509.46,0.0250779
5510.55,0.0164355
5511.64,0.00655844
5512.73,0.00161980
5513.82,0.0139655
5514.91,0.0151998
5516.00,0.0189034
5517.09,0.0102609
5518.18,0.0189028
5519.27,0.0164334
5520.36,0.0189023
5521.45,0.00902528
5522.54,0.0189018
5523.62,0.0127285
5524.71,0.0127283
5525.80,0.0127280
5526.89,0.0139623
5527.98,0.0127274
5529.07,0.00531956
5530.16,0.0114923
5531.25,0.0127266
5532.34,0.0176647
5533.43,0.0201336
5534.52,0.0127257
5535.61,0.00531785
5536.70,0.0219846
5537.79,0.00809511
5538.88,0.0158110
5539.97,0.0142675
5541.05,0.0158105
5542.14,0.00346419
5543.23,0.0142666
5544.32,0.0127231
5545.41,0.0158092
5546.50,0.0173522
5547.59,0.00346266
5548.68,0.0127218
5549.77,0.0219810
5550.86,0.0219807
5551.95,0.00346141
5553.04,0.0158071
5554.13,0.0106626
5555.22,0.0106623
5556.30,0.00654663
5557.39,0.0127193
5558.48,0.0219784
5559.57,0.0327808
5560.66,0.0111751
5561.75,0.0173477
5562.84,0.0188906
5563.93,0.0173470
5565.02,0.0173467
5566.11,0.0173464
5567.20,0.00808656
5568.29,0.0142592
5569.38,0.00499939
5570.46,0.0204315
5571.55,0.0204311
5572.64,0.0111713
5573.73,0.0127142
5574.82,0.0188869
5575.91,0.0213557
5577.00,0.0201207
5578.09,0.0102436
5579.18,0.0139470
5580.27,0.0201197
5581.36,0.0188847
5582.45,0.0176497
5583.53,0.0151802
5584.62,0.0151798
5585.71,0.0176486
5586.80,0.0114753
5587.89,0.0139441
5588.98,0.0164129
5590.07,0.0114742
5591.16,0.0225851
5592.25,0.0114734
5593.34,0.0176460
5594.43,0.0102380
5595.51,0.0127068
5596.60,0.0188794
5597.69,0.0164098
5598.78,0.0188786
5599.87,0.0139399
5600.96,0.0250508
5602.05,0.00282770
5603.14,0.0188771
5604.23,0.0151729
5605.32,0.00653028
5606.41,0.0176412
5607.49,0.0139370
5608.58,0.0139366
5609.67,0.0114670
5610.76,0.0102320
5611.85,0.0102316
5612.94,0.0188734
5614.03,0.0127000
5615.12,0.0126995
5616.21,0.0102299
5617.29,0.0176371
5618.38,0.0188712
5619.47,0.0176362
5620.56,0.0102282
5621.65,0.0114624
5622.74,0.0176349
5623.83,0.0225729
5624.92,0.0151648
5626.01,0.0114606
5627.10,0.0102256
5628.18,0.00652134
5629.27,0.00899008
5630.36,0.0102242
5631.45,0.0163968
5632.54,0.00775413
5633.63,0.00651908
5634.72,0.00898781
5635.81,0.0102219
5636.90,0.0139253
5637.98,0.0163940
5639.07,0.0102206
5640.16,0.0139239
5641.25,0.0188618
5642.34,0.0200959
5643.43,0.0151571
5644.52,0.0250334
5645.61,0.0163907
5646.70,0.0188594
5647.78,0.0151551
5648.87,0.0237968
5649.96,0.00898119
5651.05,0.0126845
5652.14,0.0225608
5653.23,0.0225603
5654.32,0.0139176
5655.41,0.0126825
5656.50,0.0176204
5657.58,0.00897772
5658.67,0.0213232
5659.76,0.0102113
5660.85,0.00403781
5661.94,0.00774109
5663.03,0.0237903
5664.12,0.0237898
5665.21,0.0151471
5666.29,0.0114428
5667.38,0.0163807
5668.47,0.0102072
5669.56,0.0126758
5670.65,0.0139099
5671.74,0.0126748
5672.83,0.00650127
5673.92,0.0139083
5675.00,0.0151424
5676.09,0.0237840
5677.18,0.0139067
5678.27,0.00896777
5679.36,0.0151402
5680.45,0.0163743
5681.54,0.00896613
5682.63,0.0163732
5683.71,0.0139034
5684.80,0.0176066
5685.89,0.0237791
5686.98,0.00772875
5688.07,0.0139012
5689.16,0.0176044
5690.25,0.00772705
5691.34,0.0237762
5692.42,0.0188373
5693.51,0.0200713
5694.60,0.0138977
5695.69,0.0163664
5696.78,0.0114274
5697.87,0.00895761
5698.96,0.0138954
5700.04,0.00401805
5701.13,0.00772125
5702.22,0.0138936
5703.31,0.0151276
5704.40,0.00895406
5705.49,0.0101881
5706.58,0.00401448
5707.67,0.0163598
5708.75,0.0114208
5709.84,0.0151240
5710.93,0.00895043
5712.02,0.0249996
5713.11,0.0175914
5714.20,0.0138870
5715.29,0.0126517
5716.37,0.0114165
5717.46,0.0114159
5718.55,0.0163537
5719.64,0.0175876
5720.73,0.0175870
5721.82,0.0126480
5722.91,0.0126473
5723.99,0.0138813
5725.08,0.0101769
5726.17,0.0114108
5727.26,0.00770638
5728.35,0.0114095
5729.44,0.00523589
5730.53,0.0138774
5731.61,0.0138768
5732.70,0.00770311
5733.79,0.00893704
5734.88,0.0138748
5735.97,0.0114049
5737.06,0.0151080
5738.15,0.0151074
5739.23,0.0546138
5740.32,0.0138714
5741.41,0.0311551
5742.50,0.0188084
5743.59,0.00646179
5744.68,0.0249800
5745.77,0.0188064
5746.85,0.0237441
5747.94,0.0126320
5749.03,0.0151005
5750.12,0.0113849
5751.21,0.0150917
5752.30,0.0126255
5753.38,0.0126286
5754.47,0.0163354
5755.56,0.0126346
5756.65,0.0138721
5757.74,0.0225173
5758.83,0.00770511
5759.92,0.0138811
5761.00,0.0200570
5762.09,0.00647937
5763.18,0.0151245
5764.27,0.0138928
5765.36,0.0138957
5766.45,0.0200716
5767.53,0.0101977
5768.62,0.0151390
5769.71,0.0225495
5770.80,0.0102064
5771.89,0.0163822
5772.98,0.0139159
5774.07,0.0139187
5775.15,0.0126870
5776.24,0.0225666
5777.33,0.0114580
5778.42,0.0114609
5779.51,0.0139329
5780.60,0.0262816
5781.68,0.00900005
5782.77,0.0127066
5783.86,0.0176478
5784.95,0.0188851
5786.04,0.0275301
5787.13,0.0139522
5788.21,0.00778199
5789.30,0.0151923
5790.39,0.0201334
5791.48,0.0139631
5792.57,0.0189042
5793.66,0.0164377
5794.74,0.0250826
5795.83,0.0189123
5796.92,0.0201495
5798.01,0.0115100
5799.10,0.0176856
5800.19,0.0139845
5801.27,0.0213947
5802.36,0.0164589
5803.45,0.00905397
5804.54,0.0164642
5805.63,0.0189360
5806.72,0.0214077
5807.80,0.0102989
5808.89,0.0140053
5809.98,0.0214155
5811.07,0.0226526
5812.16,0.0127784
5813.25,0.0127809
5814.33,0.00907967
5815.42,0.0177244
5816.51,0.0251345
5817.60,0.0140256
5818.69,0.00415133
5819.78,0.0152652
5820.86,0.0251444
5821.95,0.0140355
5823.04,0.0115688
5824.13,0.0115713
5825.22,0.0103391
5826.31,0.0128108
5827.39,0.0115786
5828.48,0.0152848
5829.57,0.00787965
5830.66,0.0165242
5831.75,0.0115883
5832.84,0.0177636
5833.92,0.0103584
5835.01,0.0190030
5836.10,0.0227091
5837.19,0.0165385
5838.28,0.0177755
5839.36,0.0227162
5840.45,0.00790337
5841.54,0.0103749
5842.63,0.0116118
5843.72,0.0116141
5844.81,0.0128510
5845.89,0.0153225
5846.98,0.000509638
5848.07,0.0116233
5849.16,0.00298338
5850.25,0.0153316
5851.33,0.00669169
5852.42,0.0103977
5853.51,0.0116346
5854.60,0.0104022
5855.69,0.00916983
5856.78,0.0252218
5857.86,0.0153472
5858.95,0.0128802
5860.04,0.0165862
5861.13,0.0202922
5862.22,0.0141214
5863.31,0.0153582
5864.39,0.0104219
5865.48,0.0141279
5866.57,0.0190684
5867.66,0.0104284
5868.75,0.0153689
5869.83,0.0153710
5870.92,0.00920013
5872.01,0.0190790
5873.10,0.0190811
5874.19,0.00828048
5875.27,0.0144555
5876.36,0.0129144
5877.45,0.0237192
5878.54,0.0160050
5879.63,0.0113773
5880.72,0.0160091
5881.80,0.0113814
5882.89,0.00829693
5883.98,0.00829896
5885.07,0.0160172
5886.16,0.0129327
5887.24,0.00676173
5888.33,0.0191097
5889.42,0.0191117
5890.51,0.0129407
5891.60,0.0144859
5892.69,0.00985810
5893.77,0.0166503
5894.86,0.0215907
5895.95,0.00430826
5897.04,0.0154216
5898.13,0.00678131
5899.21,0.0117216
5900.30,0.0166619
5901.39,0.0141946
5902.48,0.0104927
5903.57,0.0154330
5904.65,0.00185431
5905.74,0.0191405
5906.83,0.0191424
5907.92,0.0142059
5909.01,0.0154423
5910.09,0.0142096
5911.18,0.0179152
5912.27,0.0129786
5913.36,0.0203880
5914.45,0.00680927
5915.54,0.00928027
5916.62,0.0142205
5917.71,0.0105185
5918.80,0.0191624
5919.89,0.0166950
5920.98,0.00558540
5922.06,0.00311797
5923.15,0.00435432
5924.24,0.00559066
5925.33,0.0105308
5926.42,0.00189034
5927.50,0.00929965
5928.59,0.0105360
5929.68,0.00683389
5930.77,0.00683559
5931.86,0.0142449
5932.94,0.0142466
5934.03,0.00807526
5935.12,0.0117807
5936.21,0.00437481
5937.30,0.0191916
5938.38,0.0130203
5939.47,0.0161084
5940.56,0.0145668
5941.65,0.00530899
5942.74,0.00685387
5943.82,0.0130285
5944.91,0.00685710
5946.00,0.0130317
5947.09,0.0207495
5948.18,0.0192079
5949.26,0.0114932
5950.35,0.0114948
5951.44,0.0145829
5952.53,0.0130412
5953.62,0.00841299
5954.70,0.0161308
5955.79,0.0145891
5956.88,0.00996086
5957.97,0.00378941
5959.06,0.0204580
5960.14,0.0241633
5961.23,0.0142880
5962.32,0.00935114
5963.41,0.0105872
5964.50,0.0217001
5965.58,0.00812100
5966.67,0.0192338
5967.76,0.0155315
5968.85,0.00936000
5969.94,0.0167690
5971.02,0.0180051
5972.11,0.0161546
5973.20,0.0207858
5974.29,0.0177007
5975.38,0.00998592
5976.46,0.0161603
5977.55,0.0130752
5978.64,0.00999014
5979.73,0.00536179
5980.82,0.0161659
5981.90,0.0146240
5982.99,0.00845242
5984.08,0.00536730
5985.17,0.00999839
5986.26,0.0161727
5987.34,0.0161741
5988.43,0.0177187
5989.52,0.0146335
5990.61,0.0161781
5991.70,0.00846317
5992.78,0.0115510
5993.87,0.0118609
5994.96,0.0143314
5996.05,0.0118635
5997.13,0.0143340
5998.22,0.00692771
5999.31,0.00816358
6000.40,0.0143378
6001.49,0.00816611
6002.57,0.0106366
6003.66,0.0180454
6004.75,0.0143428
6005.84,0.0143441
6006.93,0.00817232
6008.01,0.0155811
6009.10,0.00570557
6010.19,0.0143490
6011.28,0.00817718
6012.37,0.00941297
6013.45,0.00200658
6014.54,0.0205267
6015.63,0.0131203
6016.72,0.00941770
6017.81,0.00571507
6018.89,0.00448164
6019.98,0.0106558
6021.07,0.00695313
6022.16,0.0155964
6023.25,0.0143630
6024.33,0.0168333
6025.42,0.0217728
6026.51,0.0106626
6027.60,0.0143675
6028.68,0.0106648
6029.77,0.00572749
6030.86,0.0168399
6031.95,0.00819886
6033.04,0.0119037
6034.12,0.00449722
6035.21,0.00573288
6036.30,0.0143761
6037.39,0.00696960
6038.48,0.00820524
6039.56,0.00697169
6040.65,0.0217879
6041.74,0.0156159
6042.83,0.0193207
6043.92,0.0156180
6045.00,0.0106806
6046.09,0.0106816
6047.18,0.0106826
6048.27,0.0143874
6049.35,0.0131538
6050.44,0.0131548
6051.53,0.00574816
6052.62,0.0180951
6053.71,0.00575009
6054.79,0.0193316
6055.88,0.0230364
6056.97,0.00575295
6058.06,0.0106923
6059.15,0.0119278
6060.23,0.0168671
6061.32,0.0106951
6062.41,0.0168690
6063.50,0.0242775
6064.58,0.0168708
6065.67,0.0181063
6066.76,0.0242802
6067.85,0.0119351
6068.94,0.00699757
6070.02,0.0107022
6071.11,0.00699932
6072.20,0.0131732
6073.29,0.0107048
6074.38,0.00823649
6075.46,0.0156449
6076.55,0.00823819
6077.64,0.0181158
6078.73,0.00947445
6079.81,0.0119445
6080.90,0.0230567
6081.99,0.0168845
6083.08,0.0119469
6084.17,0.0107131
6085.25,0.0168869
6086.34,0.0107147
6087.43,0.0107155
6088.52,0.00577788
6089.61,0.0131862
6090.69,0.0107178
6091.78,0.0131878
6092.87,0.0156577
6093.96,0.0107201
6095.04,0.0156592
6096.13,0.00825238
6097.22,0.0107223
6098.31,0.0131922
6099.40,0.0119584
6100.48,0.0218358
6101.57,0.00949060
6102.66,0.0168989
6103.75,0.00949201
6104.83,0.0107273
6105.92,0.0107280
6107.01,0.0107287
6108.10,0.0119640
6109.19,0.00826085
6110.27,0.0107307
6111.36,0.00702759
6112.45,0.0107320
6113.54,0.0132019
6114.63,0.000856566
6115.71,0.0119686
6116.80,0.0132038
6117.89,0.0107353
6118.98,0.0206126
6120.06,0.00826731
6121.15,0.00703333
6122.24,0.0132069
6123.33,0.0107383
6124.42,0.0156773
6125.50,0.0144433
6126.59,0.0144439
6127.68,0.00827152
6128.77,0.0119759
6129.85,0.0132111
6130.94,0.0119770
6132.03,0.0132122
6133.12,0.0132128
6134.21,0.0156825
6135.29,0.0156831
6136.38,0.0193874
6137.47,0.0107458
6138.56,0.0169193
6139.65,0.0107468
6140.73,0.0132165
6141.82,0.0193900
6142.91,0.00580999
6144.00,0.0119835
6145.08,0.00951479
6146.17,0.0144537
6147.26,0.0193926
6148.35,0.0181584
6149.44,0.00951676
6150.52,0.0156902
6151.61,0.00828311
6152.70,0.0107528
6153.79,0.00458026
6154.88,0.0169267
6155.96,0.00458117
6157.05,0.0107546
6158.14,0.0107550
6159.23,0.00828629
6160.31,0.0206327
6161.40,0.0119909
6162.49,0.0119914
6163.58,0.00828800
6164.67,0.00952301
6165.75,0.00828883
6166.84,0.0194006
6167.93,0.0156972
6169.02,0.0132284
6170.10,0.0218710
6171.19,0.0144638
6172.28,0.0144642
6173.37,0.0144645
6174.46,0.00829194
6175.54,0.0107615
6176.63,0.0132311
6177.72,0.00829303
6178.81,0.0169356
6179.90,0.000886150
6180.98,0.0132325
6182.07,0.0144674
6183.16,0.00706015
6184.25,0.00829508
6185.33,0.00706081
6186.42,0.000888144
6187.51,0.0107652
6188.60,0.0181731
6189.69,0.0194080
6190.77,0.0144699
6191.86,0.00212428
6192.95,0.00829755
6194.04,0.0107670
6195.12,0.0107673
6196.21,0.0169406
6197.30,0.00459489
6198.39,0.00706435
6199.48,0.00829922
6200.56,0.0157071
6201.65,0.00583054
6202.74,0.00706539
6203.83,0.00706564
6204.92,0.0144735
6206.00,0.0194121
6207.09,0.0144739
6208.18,0.0157088
6209.27,0.0144744
6210.35,0.0132400
6211.44,0.00459806
6212.53,0.00830206
6213.62,0.0144753
6214.71,0.00212949
6215.79,0.0107719
6216.88,0.0120067
6217.97,0.0120069
6219.06,0.00706865
6220.14,0.00830343
6221.23,0.00830361
6222.32,0.0107730
6223.41,0.00830396
6224.50,0.0169463
6225.58,0.00830428
6226.67,0.0181812
6227.76,0.0132430
6228.85,0.0132431
6229.94,0.0107741
6231.02,0.00583584
6232.11,0.00953976
6233.20,0.00336691
6234.29,0.0132438
6235.37,0.0132439
6236.46,0.0120095
6237.55,0.0157134
6238.64,0.00830590
6239.73,0.0144790
6240.81,0.00830611
6241.90,0.0120100
6242.99,0.0107755
6244.08,0.000898818
6245.17,0.00954108
6246.25,0.0107758
6247.34,0.00707205
6248.43,0.0157143
6249.52,0.0132452
6250.60,0.00213388
6251.69,0.00707233
6252.78,0.00830698
6253.87,0.0132454
6254.96,0.0107763
6256.04,0.0120109
6257.13,0.00830718
6258.22,0.00954182
6259.31,0.00954185
6260.40,-0.00156948
6261.48,0.0132457
6262.57,0.0132457
6263.66,0.00583817
6264.75,0.0132458
6265.83,0.0144804
6266.92,0.00830740
6268.01,0.0107766
6269.10,0.0132458
6270.19,0.00830740
6271.27,0.0107766
6272.36,0.00460360
6273.45,0.00707277
6274.54,0.00830735
6275.62,0.00830733
6276.71,0.00707271
6277.80,0.00583809
6278.89,0.0107764
6279.98,0.0144802
6281.06,0.0132456
6282.15,0.00830713
6283.24,0.00460329
6284.33,0.00954162
6285.42,0.00336859
6286.50,0.0157145
6287.59,0.00460307
6288.68,0.0120106
6289.77,0.00830672
6290.85,0.0107758
6291.94,0.00707198
6293.03,0.0181833
6294.12,0.0144794
6295.21,0.0132447
6296.29,0.00707164
6297.38,0.00830614
6298.47,0.00583685
6299.56,0.0157135
6300.65,0.00830584
6301.73,0.00707113
6302.82,0.0157132
6303.91,0.00830550
6305.00,0.0144784
6306.09,0.00830526
6307.17,0.0157127
6308.26,0.00830501
6309.35,0.00460109
6310.44,0.00953934
6311.52,0.0120084
6312.61,0.0194158
6313.70,0.0132427
6314.79,0.0132426
6315.88,0.0101559
6316.96,0.0101558
6318.05,0.0147853
6319.14,0.0163284
6320.23,0.0116985
6321.32,0.0132416
6322.40,0.0194144
6323.49,0.0209575
6324.58,0.00706809
6325.67,0.00861115
6326.76,0.0178704
6327.84,0.0194135
6328.93,0.0147836
6330.02,0.0194131
6331.11,0.0132399
6332.20,0.0302154
6333.28,0.0302152
6334.37,0.0209555
6335.46,0.0209553
6336.55,0.0255849
6337.64,0.0305230
6338.72,0.0268190
6339.81,0.0305226
6340.90,0.0255840
6341.99,0.0280529
6343.07,0.0317565
6344.16,0.0268179
6345.25,0.0280522
6346.34,0.0280520
6347.43,0.0120020
6348.51,0.0243477
6349.60,0.0280513
6350.69,0.0144704
6351.78,0.0169394
6352.87,0.0132353
6353.95,0.00829669
6355.04,0.0120002
6356.13,0.0194075
6357.22,0.0243456
6358.31,0.0119994
6359.39,0.00706074
6360.48,0.0132334
6361.57,0.0107640
6362.66,0.0119983
6363.75,0.00952880
6364.83,0.00459012
6365.92,0.0157012
6367.01,0.0144663
6368.10,0.0194044
6369.19,0.0107619
6370.27,0.0157000
6371.36,0.00952670
6372.45,0.0119956
6373.54,0.00705689
6374.63,0.00582197
6375.71,0.00829085
6376.80,0.0206365
6377.89,0.00952480
6378.98,0.00952447
6380.07,0.00705495
6381.15,0.0156968
6382.24,0.00581969
6383.33,0.0132269
6384.42,0.00828820
6385.51,0.0156954
6386.59,0.00828751
6387.68,0.00705257
6388.77,0.00705222
6389.86,0.00828646
6390.95,0.00334772
6392.03,0.00705115
6393.12,0.0119892
6394.21,0.0193964
6395.30,0.00705006
6396.39,0.00458050
6397.47,0.00828392
6398.56,0.0107527
6399.65,0.0132216
6400.74,0.00951739
6401.83,0.00951701
6402.91,0.00704743
6404.00,0.0144546
6405.09,0.0156888
6406.18,0.0193922
6407.27,0.0144534
6408.35,0.0144531
6409.44,0.00827967
6410.53,0.0107485
6411.62,0.00827887
6412.71,0.0206244
6413.79,0.00457427
6414.88,0.0255620
6415.97,0.0243270
6417.06,0.0144498
6418.15,0.0107456
6419.23,0.00951058
6420.32,0.0193869
6421.41,0.00950973
6422.50,0.00580552
6423.59,0.0132127
6424.67,0.0132122
6425.76,0.00703883
6426.85,0.00456920
6427.94,0.00703795
6429.03,0.0107413
6430.12,0.00209869
6431.20,0.00703663
6432.29,0.00456699
6433.38,0.0107395
6434.47,0.0107391
6435.56,0.0107386
6436.64,0.0132074
6437.73,0.0119723
6438.82,0.0132064
6439.91,0.0181444
6441.00,0.0156747
6442.08,0.0144396
6443.17,0.0107354
6444.26,0.0119695
6445.35,0.0156728
6446.44,0.0156724
6447.52,0.0107335
6448.61,0.0132022
6449.70,0.0132017
6450.79,0.00949747
6451.88,0.00702779
6452.97,0.0119657
6454.05,0.00332303
6455.14,0.0119647
6456.23,0.00702584
6457.32,0.0119637
6458.41,0.0144324
6459.49,0.00949355
6460.58,0.00702386
6461.67,0.0144309
6462.76,0.0119612
6463.85,0.00578775
6464.94,0.00825644
6466.02,0.0131943
6467.11,0.00702082
6468.20,0.000847330
6469.29,0.00578520
6470.38,0.00948848
6471.46,0.0107226
6472.55,0.0131912
6473.64,0.0107215
6474.73,0.00701720
6475.82,0.00578208
6476.90,0.00948535
6477.99,0.00331184
6479.08,0.00948429
6480.17,0.0144221
6481.26,0.00577944
6482.35,0.0119519
6483.43,0.00454377
6484.52,0.0156546
6485.61,0.0119503
6486.70,0.00701134
6487.79,0.0193568
6488.88,0.00824485
6489.96,0.00700971
6491.05,0.00700916
6492.14,0.00577402
6493.23,0.00700806
6494.32,0.00700751
6495.40,0.0107107
6496.49,0.00947559
6497.58,0.0181172
6498.67,0.0107091
6499.76,0.000831745
6500.85,0.00576957
6501.93,0.00947280
6503.02,0.0144106
6504.11,0.0119409
6505.20,0.00823650
6506.29,0.00453214
6507.38,0.00823536
6508.46,0.0131732
6509.55,0.00206124
6510.64,0.0107028
6511.73,0.0119369
6512.82,0.00823249
6513.90,0.00329353
6514.99,0.0107005
6516.08,0.00699616
6517.17,0.0119340
6518.26,0.00576039
6519.35,0.00205602
6520.43,0.0131668
6521.52,0.00946242
6522.61,0.0168694
6523.70,0.00822665
6524.79,0.00452227
6525.88,0.0143984
6526.96,0.000817292
6528.05,0.0230394
6529.14,0.0143967
6530.23,0.00698848
6531.32,0.0131609
6532.41,0.0168641
6533.49,0.00945588
6534.58,0.00822068
6535.67,0.00822007
6536.76,0.00945407
6537.85,0.00945346
6538.94,0.00821826
6540.02,0.0106868
6541.11,0.00945164
6542.20,0.0119202
6543.29,0.00945042
6544.38,0.00698061
6545.47,0.0156222
6546.55,0.0119178
6547.64,0.00821336
6548.73,0.00944734
6549.82,0.00944673
6550.91,0.0119153
6552.00,0.0131493
6553.08,0.0156179
6554.17,0.0106788
6555.26,0.0143820
6556.35,0.0106776
6557.44,0.0131462
6558.53,0.0119109
6559.61,0.0168487
6560.70,0.0131443
6561.79,0.00203229
6562.88,0.0119084
6563.97,0.00573483
6565.06,0.00943798
6566.15,0.0131411
6567.23,0.0106713
6568.32,0.0143745
6569.41,0.0143738
6570.50,0.0119040
6571.59,0.00943418
6572.68,0.00819895
6573.76,0.0205443
6574.85,0.0119015
6575.94,0.0156046
6577.03,0.0168386
6578.12,0.0180725
6579.21,0.0205411
6580.29,0.0106637
6581.38,0.0328858
6582.47,0.0279467
6583.56,0.0291807
6584.65,0.0427606
6585.74,0.0378216
6586.83,0.0365863
6587.91,0.0291781
6589.00,0.0230045
6590.09,0.0427574
6591.18,0.0476951
6592.27,0.0291755
6593.36,0.0304095
6594.45,0.0267050
6595.53,0.0390503
6596.62,0.0341113
6597.71,0.0452220
6598.80,0.0526290
6599.89,0.0464553
6600.98,0.0402817
6602.06,0.0415156
6603.15,0.0415150
6604.24,0.0365759
6605.33,0.0415137
6606.42,0.0291670
6607.51,0.0489199
6608.60,0.0439809
6609.69,0.0452148
6610.77,0.0378066
6611.86,0.0526211
6612.95,0.0439783
6614.04,0.0402738
6615.13,0.0674343
6616.22,0.0624952
6617.30,0.0649638
6618.39,0.0822475
6619.48,0.0699008
6620.57,0.0797770
6621.66,0.0921222
6622.75,0.0797756
6623.84,0.0748366
6624.92,0.0760705
6626.01,0.0834774
6627.10,0.0859460
6628.19,0.0612534
6629.28,0.0896484
6630.37,0.0711288
6631.46,0.0785357
6632.55,0.0501394
6633.63,0.0513733
6634.72,0.0526072
6635.81,0.0353222
6636.90,0.0377907
6637.99,0.0414939
6639.08,0.0365548
6640.17,0.0377888
6641.25,0.0217383
6642.34,0.0254415
6643.43,0.0167986
6644.52,0.0143288
6645.61,0.0180319
6646.70,0.0167966
6647.79,0.0118576
6648.88,0.0192645
6649.96,0.0155600
6651.05,0.0192632
6652.14,0.0167933
6653.23,0.0155581
6654.32,0.0118536
6655.41,0.0192605
6656.50,0.00938309
6657.58,0.0167900
6658.67,0.0180239
6659.76,0.0167887
6660.85,0.0192572
6661.94,0.0106144
6663.03,0.00937910
6664.12,0.0204898
6665.21,0.00690859
6666.29,0.0118463
6667.38,0.00937645
6668.47,0.0161661
6669.56,0.0177087
6670.65,0.00844852
6671.74,0.00536137
6672.83,0.0177067
6673.92,0.00690329
6675.01,0.0146189
6676.09,0.0130749
6677.18,0.00998780
6678.27,0.0192466
6679.36,0.00998648
6680.45,0.00844257
6681.54,0.0192446
6682.63,0.00535476
6683.72,0.00689735
6684.80,0.00843994
6685.89,0.00843928
6686.98,0.00843862
6688.07,0.0130677
6689.16,0.0130670
6690.25,0.00936260
6691.34,0.0167695
6692.43,0.0130651
6693.52,0.0142990
6694.60,0.0130638
6695.69,0.0142977
6696.78,0.0105933
6697.87,0.00688882
6698.96,0.0105920
6700.05,0.00441832
6701.14,0.00441767
6702.23,0.0118246
6703.32,0.00812015
6704.40,0.00811950
6705.49,0.00935345
6706.58,0.00935280
6707.67,0.00688296
6708.76,0.00317852
6709.85,0.00811626
6710.94,0.00811561
6712.03,0.00811497
6713.12,0.00194134
6714.20,0.00564448
6715.29,0.0105822
6716.38,0.0105816
6717.47,0.00934634
6718.56,0.00811110
6719.65,0.00687586
6720.74,0.00687522
6721.83,0.0105784
6722.92,0.0118123
6724.01,0.0118117
6725.09,0.0105764
6726.18,0.00934122
6727.27,0.00563679
6728.36,0.0142783
6729.45,0.00810471
6730.54,0.0105733
6731.63,0.0155110
6732.72,0.0118066
6733.81,0.00686758
6734.90,0.0118053
6735.98,-0.000541260
6737.07,0.00686569
6738.16,0.00809966
6739.25,0.00933362
6740.34,0.00809840
6741.43,0.0105670
6742.52,0.0105663
6743.61,0.0105657
6744.70,0.0142689
6745.79,0.0105645
6746.88,0.00686006
6747.96,0.0155016
6749.05,0.0130318
6750.14,0.0130312
6751.23,0.0179690
6752.32,0.00191858
6753.41,0.0117947
6754.50,0.0204363
6755.59,0.0130281
6756.68,0.0253735
6757.77,0.0105577
6758.86,0.0364836
6759.94,0.0290754
6761.03,0.0179634
6762.12,0.0241358
6763.21,0.0290736
6764.30,0.0364806
6765.39,0.0204302
6766.48,0.0204296
6767.57,0.0216636
6768.66,0.0191938
6769.75,0.0191932
6770.84,0.0377116
6771.93,0.0284515
6773.02,0.0238212
6774.10,0.0176476
6775.19,0.0269065
6776.28,0.0130167
6777.37,0.0238188
6778.46,0.0284479
6779.55,0.0114716
6780.64,0.0176440
6781.73,0.0130137
6782.82,0.0176429
6783.91,0.0176423
6785.00,0.0176417
6786.09,0.0150690
6787.17,0.0191838
6788.26,0.0109526
6789.35,0.0212403
6790.44,0.00837935
6791.53,0.0114653
6792.62,0.00683496
6793.71,0.0176371
6794.80,0.00837706
6795.89,0.0145495
6796.98,0.00837593
6798.07,0.00837536
6799.16,0.0109469
6800.25,0.00683099
6801.34,0.0150611
6802.43,0.0109452
6803.51,0.00682932
6804.60,0.0130017
6805.69,0.0191742
6806.78,0.00991414
6807.87,0.00682710
6808.96,0.00991304
6810.05,0.000653024
6811.14,0.0191714
6812.23,0.00682491
6813.32,0.00682437
6814.41,0.00682383
6815.50,0.000650308
